Sample ID:	C:\Users\MCC\Documents\MCC Data\ULINE_CB\ULINE_CB_MCC_N2_30K_231110_R2.txt
Sample Weight (mg):	4.01
Heating Rate (C/s):	0.5
Combustor Temp (C):	900
N2 Flow Rate (cc/min):	80
O2 Flow Rate (cc/min):	20
Calibration File:	C:\Users\MCC\Desktop\UMD MCC\MCC\Calibration Files\Coefficients\Coeff_231026_30K.txt
T Correction Coefficients:	0	1.0291	0
Time Shift (s):	8.5
*
Time (s)	Temperature (C)	N2 Flow (cc/min)	O2 Flow (cc/min)	End Flow (cc/min)	Oxygen (%)	HRR (W/g)
0.000	75.189	80.011	19.990	100.340	20.269	-0.269
0.500	75.235	80.005	19.987	100.340	20.267	-0.101
1.000	75.258	80.010	19.988	100.339	20.266	-0.070
1.500	75.297	80.005	19.987	100.338	20.268	-0.180
2.000	75.341	80.012	19.990	100.336	20.268	-0.207
2.500	75.378	80.007	19.988	100.339	20.267	-0.163
3.000	75.422	80.012	19.989	100.336	20.268	-0.182
3.500	75.472	80.013	19.992	100.338	20.267	-0.146
4.000	75.507	80.011	19.989	100.340	20.269	-0.250
4.500	75.548	80.006	19.988	100.341	20.268	-0.226
5.000	75.578	80.009	19.989	100.336	20.271	-0.400
5.500	75.624	80.007	19.988	100.337	20.271	-0.410
6.000	75.661	80.016	19.992	100.337	20.270	-0.329
6.500	75.693	80.008	19.989	100.339	20.268	-0.234
7.000	75.725	80.003	19.987	100.336	20.269	-0.297
7.500	75.790	80.016	19.991	100.332	20.270	-0.348
8.000	75.809	80.007	19.988	100.333	20.270	-0.376
8.500	75.861	80.014	19.992	100.327	20.269	-0.313
9.000	75.900	80.010	19.990	100.319	20.268	-0.182
9.500	75.947	80.004	19.987	100.307	20.269	-0.296
10.000	75.997	80.006	19.989	100.295	20.271	-0.470
10.500	76.016	80.010	19.989	100.271	20.272	-0.505
11.000	76.074	80.010	19.990	100.247	20.273	-0.631
11.500	76.098	80.003	19.988	100.223	20.275	-0.735
12.000	76.144	80.012	19.990	100.208	20.275	-0.775
12.500	76.184	80.014	19.993	100.205	20.277	-0.926
13.000	76.220	80.011	19.992	100.208	20.281	-1.214
13.500	76.265	80.007	19.989	100.216	20.281	-1.191
14.000	76.296	80.012	19.992	100.222	20.282	-1.304
14.500	76.324	80.010	19.990	100.233	20.281	-1.244
15.000	76.354	80.007	19.990	100.241	20.283	-1.382
15.500	76.399	80.008	19.990	100.248	20.282	-1.295
16.000	76.419	80.004	19.988	100.255	20.282	-1.293
16.500	76.474	80.010	19.990	100.263	20.281	-1.199
17.000	76.526	80.008	19.991	100.269	20.281	-1.229
17.500	76.542	80.007	19.991	100.274	20.280	-1.149
18.000	76.578	80.011	19.990	100.281	20.280	-1.149
18.500	76.616	80.009	19.991	100.288	20.281	-1.216
19.000	76.630	80.016	19.993	100.297	20.280	-1.116
19.500	76.680	80.018	19.994	100.306	20.279	-1.071
20.000	76.727	80.013	19.992	100.310	20.277	-0.876
20.500	76.753	80.008	19.990	100.312	20.276	-0.847
21.000	76.770	80.005	19.989	100.313	20.276	-0.860
21.500	76.817	80.005	19.989	100.312	20.275	-0.786
22.000	76.866	80.013	19.992	100.308	20.276	-0.840
22.500	76.907	80.007	19.989	100.309	20.275	-0.735
23.000	76.923	80.003	19.984	100.309	20.273	-0.563
23.500	76.981	80.010	19.991	100.303	20.272	-0.552
24.000	77.000	80.016	19.993	100.307	20.272	-0.515
24.500	77.048	80.005	19.991	100.315	20.272	-0.525
25.000	77.076	79.999	19.988	100.318	20.271	-0.434
25.500	77.114	80.017	19.992	100.320	20.271	-0.438
26.000	77.168	80.015	19.993	100.334	20.271	-0.405
26.500	77.201	80.002	19.987	100.341	20.270	-0.352
27.000	77.237	80.003	19.988	100.339	20.270	-0.351
27.500	77.279	80.003	19.988	100.338	20.270	-0.349
28.000	77.328	80.011	19.991	100.344	20.268	-0.239
28.500	77.368	80.006	19.991	100.346	20.268	-0.201
29.000	77.392	80.017	19.995	100.345	20.268	-0.222
29.500	77.446	80.008	19.990	100.353	20.266	-0.072
30.000	77.472	80.008	19.990	100.361	20.266	-0.070
30.500	77.544	80.011	19.992	100.363	20.266	-0.077
31.000	77.588	79.997	19.983	100.362	20.265	0.020
31.500	77.637	80.008	19.988	100.361	20.265	0.004
32.000	77.691	80.012	19.992	100.358	20.264	0.102
32.501	77.721	79.998	19.984	100.359	20.263	0.181
33.001	77.769	80.011	19.994	100.355	20.264	0.105
33.500	77.816	80.006	19.988	100.360	20.263	0.190
34.000	77.870	80.007	19.989	100.365	20.261	0.320
34.500	77.915	80.015	19.994	100.370	20.263	0.173
35.000	77.970	80.011	19.992	100.372	20.263	0.185
35.500	78.019	80.008	19.989	100.381	20.260	0.384
36.001	78.073	80.005	19.987	100.383	20.261	0.336
36.501	78.128	79.999	19.984	100.385	20.260	0.391
37.001	78.174	80.014	19.993	100.388	20.261	0.370
37.500	78.238	80.008	19.989	100.396	20.260	0.433
38.000	78.307	80.012	19.991	100.401	20.259	0.489
38.500	78.370	80.013	19.990	100.410	20.255	0.780
39.000	78.421	80.015	19.994	100.419	20.255	0.792
39.500	78.470	80.001	19.987	100.431	20.256	0.762
40.000	78.557	80.002	19.987	100.427	20.255	0.833
40.500	78.605	80.009	19.990	100.430	20.254	0.851
41.000	78.674	80.011	19.992	100.434	20.253	0.984
41.500	78.753	80.005	19.990	100.439	20.252	1.060
42.000	78.827	80.007	19.990	100.440	20.250	1.209
42.500	78.890	80.013	19.992	100.449	20.250	1.171
43.000	78.958	80.011	19.992	100.458	20.249	1.318
43.500	79.040	80.008	19.990	100.462	20.248	1.354
44.000	79.105	80.010	19.991	100.469	20.247	1.460
44.500	79.200	80.017	19.994	100.479	20.246	1.507
45.000	79.266	80.018	19.995	100.490	20.244	1.669
45.500	79.346	80.010	19.990	100.499	20.244	1.636
46.000	79.449	80.006	19.988	100.505	20.243	1.765
46.500	79.516	80.012	19.991	100.505	20.241	1.883
47.000	79.652	80.012	19.990	100.506	20.240	1.997
47.500	79.722	80.002	19.986	100.505	20.239	2.033
48.001	79.810	80.012	19.989	100.501	20.238	2.158
48.501	79.901	80.004	19.987	100.502	20.238	2.151
49.001	80.004	80.009	19.990	100.503	20.235	2.344
49.501	80.117	80.007	19.988	100.504	20.235	2.372
50.000	80.219	80.010	19.989	100.503	20.235	2.374
50.500	80.318	80.008	19.988	100.509	20.233	2.527
51.000	80.437	80.014	19.991	100.515	20.235	2.415
51.500	80.543	80.018	19.992	100.524	20.233	2.542
52.000	80.657	79.999	19.985	100.530	20.233	2.526
52.500	80.768	80.008	19.987	100.532	20.233	2.572
53.000	80.875	80.011	19.990	100.532	20.230	2.759
53.500	80.999	80.010	19.989	100.535	20.229	2.841
54.000	81.143	79.998	19.983	100.541	20.229	2.868
54.500	81.260	80.002	19.985	100.543	20.227	3.017
55.000	81.375	80.016	19.993	100.552	20.226	3.089
55.501	81.505	80.007	19.988	100.563	20.226	3.085
56.001	81.629	80.008	19.989	100.573	20.224	3.233
56.500	81.778	80.014	19.991	100.575	20.223	3.354
57.000	81.913	80.011	19.990	100.587	20.223	3.341
57.500	82.074	80.012	19.992	100.595	20.222	3.396
58.000	82.198	80.007	19.988	100.601	20.219	3.594
58.500	82.351	80.009	19.990	100.603	20.220	3.589
59.000	82.488	80.016	19.993	100.608	20.218	3.692
59.501	82.645	80.007	19.988	100.606	20.217	3.751
60.001	82.826	80.016	19.992	100.601	20.216	3.855
60.500	82.958	80.014	19.992	100.596	20.215	3.931
61.000	83.122	80.013	19.990	100.593	20.216	3.885
61.500	83.281	80.015	19.993	100.592	20.215	3.965
62.001	83.436	80.011	19.991	100.594	20.214	3.995
62.501	83.614	80.011	19.993	100.603	20.214	4.008
63.000	83.771	79.999	19.982	100.608	20.213	4.085
63.500	83.952	80.023	19.997	100.607	20.213	4.120
64.000	84.115	80.007	19.988	100.614	20.213	4.112
64.500	84.318	80.005	19.988	100.611	20.213	4.131
65.000	84.486	80.009	19.990	100.606	20.213	4.108
65.500	84.660	80.009	19.991	100.599	20.213	4.115
66.000	84.827	80.011	19.990	100.602	20.213	4.094
66.500	85.021	80.011	19.991	100.597	20.211	4.262
67.000	85.208	80.008	19.988	100.595	20.212	4.179
67.500	85.377	80.007	19.990	100.593	20.211	4.243
68.000	85.585	80.006	19.988	100.593	20.211	4.251
68.500	85.760	80.007	19.986	100.589	20.212	4.168
69.000	85.980	80.009	19.988	100.580	20.211	4.224
69.500	86.179	80.015	19.989	100.579	20.212	4.161
70.000	86.360	80.014	19.992	100.582	20.210	4.296
70.500	86.566	80.006	19.989	100.588	20.211	4.259
71.000	86.747	80.008	19.990	100.591	20.210	4.306
71.500	86.961	80.003	19.987	100.595	20.210	4.334
72.000	87.155	80.012	19.990	100.592	20.210	4.350
72.500	87.378	80.011	19.989	100.592	20.211	4.241
73.000	87.575	80.011	19.990	100.589	20.211	4.256
73.500	87.788	80.005	19.987	100.593	20.211	4.226
74.000	87.985	80.014	19.991	100.592	20.209	4.392
74.500	88.195	80.006	19.988	100.598	20.211	4.290
75.000	88.445	80.008	19.990	100.596	20.209	4.420
75.500	88.619	80.008	19.988	100.594	20.208	4.473
76.000	88.862	80.017	19.992	100.591	20.210	4.333
76.500	89.082	80.012	19.991	100.595	20.209	4.393
77.000	89.280	80.013	19.990	100.592	20.210	4.352
77.500	89.521	80.011	19.991	100.592	20.209	4.435
78.000	89.743	80.005	19.987	100.595	20.210	4.345
78.500	89.978	80.007	19.989	100.591	20.210	4.343
79.000	90.182	80.012	19.991	100.589	20.209	4.392
79.500	90.410	80.005	19.986	100.594	20.210	4.373
80.000	90.660	80.004	19.986	100.593	20.210	4.300
80.501	90.864	80.007	19.988	100.591	20.210	4.360
81.001	91.119	80.016	19.992	100.594	20.210	4.363
81.500	91.336	80.012	19.991	100.600	20.210	4.364
82.000	91.586	80.000	19.985	100.598	20.209	4.396
82.500	91.806	79.999	19.985	100.600	20.208	4.458
83.000	92.054	80.003	19.987	100.602	20.208	4.464
83.500	92.286	80.016	19.993	100.605	20.210	4.345
84.000	92.514	80.007	19.987	100.606	20.210	4.328
84.500	92.781	80.003	19.987	100.606	20.211	4.269
85.000	92.993	80.008	19.990	100.609	20.208	4.500
85.500	93.285	80.002	19.988	100.609	20.208	4.468
86.000	93.515	80.001	19.986	100.610	20.209	4.417
86.500	93.742	80.011	19.991	100.602	20.210	4.320
87.001	94.004	79.997	19.984	100.604	20.210	4.311
87.501	94.242	79.998	19.984	100.602	20.208	4.482
88.000	94.515	80.009	19.989	100.602	20.208	4.475
88.500	94.736	80.005	19.986	100.603	20.209	4.433
89.000	95.037	80.010	19.990	100.605	20.206	4.617
89.500	95.263	80.006	19.988	100.604	20.207	4.585
90.000	95.532	80.010	19.990	100.609	20.209	4.419
90.500	95.785	80.007	19.989	100.615	20.209	4.408
91.000	96.023	80.014	19.991	100.614	20.210	4.309
91.500	96.295	80.016	19.990	100.618	20.208	4.490
92.000	96.543	80.010	19.990	100.617	20.209	4.438
92.500	96.839	80.007	19.988	100.618	20.209	4.419
93.000	97.082	80.011	19.990	100.616	20.209	4.424
93.500	97.351	80.020	19.995	100.618	20.209	4.378
94.000	97.597	80.006	19.986	100.622	20.209	4.450
94.500	97.878	80.011	19.990	100.620	20.209	4.451
95.000	98.153	80.007	19.988	100.620	20.209	4.402
95.500	98.398	80.012	19.988	100.621	20.209	4.398
96.000	98.682	80.012	19.991	100.622	20.209	4.393
96.500	98.945	80.004	19.988	100.619	20.209	4.439
97.000	99.233	80.011	19.990	100.620	20.207	4.594
97.500	99.520	80.008	19.989	100.620	20.208	4.486
98.000	99.795	80.003	19.986	100.620	20.208	4.467
98.500	100.074	79.996	19.984	100.616	20.208	4.518
99.000	100.314	80.019	19.994	100.610	20.209	4.401
99.501	100.639	79.991	19.983	100.615	20.209	4.431
100.001	100.868	80.000	19.981	100.611	20.208	4.506
100.500	101.195	80.024	19.996	100.605	20.207	4.536
101.000	101.461	79.995	19.982	100.613	20.208	4.471
101.500	101.719	80.009	19.988	100.609	20.207	4.569
102.000	102.032	79.998	19.988	100.602	20.209	4.407
102.500	102.287	80.009	19.990	100.605	20.208	4.529
103.000	102.617	80.007	19.988	100.612	20.208	4.515
103.500	102.865	79.996	19.983	100.605	20.207	4.583
104.000	103.163	80.021	19.994	100.608	20.208	4.500
104.500	103.471	80.020	19.994	100.616	20.208	4.509
105.000	103.754	80.016	19.992	100.619	20.209	4.401
105.500	104.047	80.001	19.986	100.621	20.208	4.506
106.000	104.300	80.027	19.998	100.619	20.209	4.436
106.500	104.640	80.012	19.990	100.630	20.208	4.485
107.000	104.900	80.005	19.987	100.627	20.208	4.483
107.500	105.204	80.005	19.987	100.618	20.208	4.453
108.000	105.502	80.004	19.986	100.613	20.210	4.350
108.500	105.781	80.019	19.994	100.612	20.210	4.355
109.000	106.093	80.009	19.989	100.607	20.210	4.343
109.500	106.363	80.010	19.990	100.599	20.210	4.298
110.000	106.708	80.026	19.996	100.599	20.211	4.250
110.500	106.967	80.012	19.990	100.604	20.211	4.242
111.000	107.284	80.016	19.992	100.604	20.211	4.249
111.500	107.571	80.007	19.987	100.599	20.212	4.154
112.000	107.866	80.015	19.991	100.596	20.213	4.100
112.500	108.176	80.020	19.994	100.595	20.213	4.061
113.000	108.455	80.004	19.987	100.591	20.214	4.049
113.501	108.787	80.009	19.988	100.586	20.214	4.009
114.001	109.053	80.008	19.988	100.583	20.216	3.894
114.500	109.386	80.010	19.989	100.584	20.215	3.924
115.000	109.662	80.024	19.995	100.583	20.215	3.931
115.500	109.971	80.002	19.984	100.583	20.214	4.013
116.000	110.294	80.015	19.993	100.586	20.215	3.953
116.500	110.555	80.017	19.993	100.593	20.215	3.950
117.000	110.896	80.002	19.985	100.598	20.215	3.962
117.500	111.179	80.030	20.000	100.596	20.214	4.040
118.000	111.500	80.010	19.989	100.598	20.214	4.033
118.500	111.802	80.006	19.986	100.596	20.216	3.898
119.000	112.090	80.016	19.991	100.585	20.215	3.949
119.500	112.408	80.000	19.983	100.583	20.215	3.920
120.000	112.696	80.019	19.993	100.582	20.215	3.909
120.500	113.032	80.041	20.003	100.579	20.217	3.819
121.000	113.302	80.015	19.993	100.591	20.215	3.923
121.500	113.618	80.003	19.986	100.598	20.216	3.832
122.001	113.941	80.024	19.995	100.594	20.217	3.803
122.501	114.237	80.007	19.988	100.598	20.216	3.902
123.000	114.546	80.008	19.987	100.587	20.216	3.828
123.500	114.814	79.991	19.973	100.573	20.217	3.747
124.000	115.158	80.009	19.990	100.556	20.218	3.737
124.500	115.456	80.006	19.990	100.559	20.217	3.749
125.001	115.758	79.998	19.983	100.557	20.219	3.624
125.501	116.094	80.015	19.987	100.557	20.219	3.648
126.000	116.375	79.999	19.986	100.557	20.220	3.512
126.500	116.694	80.014	19.990	100.564	20.218	3.680
127.000	116.970	80.026	19.999	100.559	20.219	3.625
127.501	117.308	80.010	19.991	100.562	20.220	3.571
128.000	117.587	79.990	19.985	100.561	20.220	3.519
128.500	117.914	80.013	19.989	100.556	20.222	3.396
129.000	118.208	80.009	19.990	100.557	20.221	3.505
129.500	118.513	80.000	19.987	100.558	20.220	3.534
130.000	118.838	80.012	19.987	100.551	20.221	3.455
130.500	119.117	80.008	19.988	100.547	20.220	3.545
131.000	119.457	80.016	19.994	100.546	20.220	3.562
131.500	119.714	80.015	19.992	100.548	20.219	3.619
132.000	120.039	80.024	19.994	100.547	20.219	3.593
132.500	120.350	80.015	19.990	100.549	20.220	3.562
133.000	120.649	79.996	19.987	100.555	20.220	3.513
133.500	120.971	80.015	19.994	100.558	20.221	3.482
134.000	121.241	80.002	19.986	100.561	20.221	3.488
134.500	121.577	80.009	19.989	100.556	20.222	3.412
135.000	121.844	80.005	19.988	100.554	20.222	3.394
135.500	122.157	80.004	19.986	100.548	20.222	3.422
136.000	122.482	80.015	19.993	100.543	20.223	3.326
136.500	122.765	80.002	19.979	100.539	20.223	3.311
137.000	123.086	80.015	19.990	100.533	20.224	3.240
137.500	123.360	80.006	19.989	100.533	20.224	3.264
138.000	123.692	79.998	19.981	100.536	20.223	3.277
138.500	123.971	80.007	19.985	100.533	20.223	3.326
139.000	124.289	80.022	19.993	100.526	20.222	3.376
139.500	124.578	80.005	19.988	100.537	20.223	3.320
140.000	124.881	80.005	19.988	100.535	20.222	3.360
140.500	125.184	80.022	19.993	100.533	20.222	3.356
141.000	125.458	80.006	19.989	100.541	20.223	3.352
141.500	125.787	80.014	19.990	100.543	20.222	3.396
142.000	126.067	80.009	19.989	100.538	20.224	3.270
142.500	126.371	80.006	19.994	100.537	20.223	3.279
143.000	126.681	80.000	19.985	100.538	20.224	3.241
143.500	126.969	80.006	19.989	100.529	20.223	3.293
144.000	127.303	80.023	19.995	100.529	20.226	3.113
144.500	127.550	80.013	19.992	100.530	20.224	3.272
145.000	127.877	80.020	19.995	100.531	20.225	3.159
145.500	128.143	80.011	19.985	100.534	20.226	3.107
146.000	128.455	80.004	19.985	100.535	20.225	3.148
146.500	128.756	80.029	19.998	100.527	20.226	3.102
147.000	129.053	80.010	19.989	100.526	20.226	3.057
147.500	129.358	80.010	19.986	100.523	20.226	3.077
148.000	129.613	80.016	19.992	100.508	20.226	3.071
148.500	129.926	80.015	19.994	100.508	20.226	3.071
149.000	130.218	80.021	19.995	100.515	20.225	3.119
149.500	130.510	80.007	19.990	100.512	20.226	3.094
150.000	130.801	80.009	19.988	100.510	20.226	3.050
150.500	131.076	80.016	19.993	100.514	20.228	2.940
151.000	131.403	80.020	19.993	100.517	20.225	3.125
151.500	131.663	79.990	19.978	100.517	20.226	3.042
152.000	131.986	80.008	19.991	100.506	20.227	2.979
152.500	132.266	80.029	19.997	100.509	20.228	2.927
153.000	132.562	80.017	19.989	100.515	20.227	3.033
153.500	132.848	79.998	19.984	100.510	20.227	3.027
154.000	133.114	80.020	19.999	100.503	20.226	3.103
154.500	133.426	80.018	19.993	100.519	20.226	3.083
155.000	133.693	80.006	19.987	100.519	20.227	2.999
155.500	134.010	80.010	19.987	100.513	20.227	2.973
156.000	134.279	80.015	19.992	100.509	20.227	3.034
156.500	134.584	80.025	19.995	100.512	20.228	2.921
157.000	134.855	80.015	19.994	100.508	20.227	3.006
157.500	135.128	80.017	19.992	100.506	20.228	2.915
158.000	135.435	80.022	19.995	100.509	20.229	2.859
158.500	135.686	80.024	19.994	100.516	20.228	2.949
159.000	136.004	80.007	19.987	100.518	20.230	2.777
159.500	136.274	80.023	19.996	100.512	20.228	2.915
160.000	136.577	79.998	19.983	100.517	20.228	2.907
160.500	136.845	80.006	19.990	100.510	20.228	2.897
161.000	137.132	80.001	19.988	100.505	20.230	2.754
161.500	137.425	80.014	19.992	100.500	20.229	2.834
162.000	137.670	79.995	19.981	100.502	20.229	2.832
162.500	138.019	80.003	19.987	100.490	20.230	2.789
163.000	138.259	80.010	19.985	100.489	20.230	2.751
163.500	138.539	80.017	19.987	100.481	20.230	2.804
164.000	138.813	80.009	19.987	100.478	20.230	2.764
164.500	139.095	80.015	19.989	100.475	20.231	2.676
165.000	139.396	80.010	19.990	100.479	20.231	2.679
165.500	139.650	80.018	19.990	100.482	20.232	2.627
166.000	139.946	80.004	19.988	100.487	20.232	2.577
166.500	140.199	80.024	19.998	100.487	20.233	2.566
167.000	140.499	80.010	19.991	100.495	20.233	2.536
167.500	140.774	80.015	19.990	100.498	20.232	2.600
168.000	141.024	80.025	19.992	100.501	20.235	2.396
168.500	141.317	80.009	19.989	100.501	20.236	2.335
169.000	141.585	80.015	19.992	100.501	20.234	2.462
169.500	141.890	80.008	19.990	100.491	20.236	2.297
170.000	142.127	80.012	19.987	100.484	20.235	2.349
170.500	142.409	80.008	19.986	100.478	20.235	2.401
171.000	142.688	80.016	19.994	100.473	20.236	2.297
171.500	142.945	80.015	19.991	100.472	20.236	2.330
172.000	143.236	80.010	19.987	100.470	20.237	2.191
172.500	143.502	80.010	19.984	100.469	20.236	2.258
173.000	143.784	80.025	19.994	100.461	20.238	2.149
173.500	144.037	80.003	19.990	100.464	20.237	2.220
174.000	144.298	80.002	19.991	100.466	20.237	2.207
174.500	144.580	80.010	19.977	100.467	20.237	2.223
175.000	144.838	80.016	19.994	100.458	20.238	2.128
175.500	145.114	80.022	19.995	100.471	20.237	2.199
176.000	145.372	80.023	19.995	100.472	20.237	2.233
176.500	145.671	80.009	19.987	100.474	20.237	2.184
177.000	145.909	80.012	19.990	100.474	20.238	2.157
177.500	146.176	80.024	19.994	100.483	20.238	2.153
178.000	146.445	80.021	19.991	100.481	20.237	2.191
178.500	146.720	80.003	19.987	100.479	20.237	2.195
179.000	146.978	80.010	19.994	100.473	20.238	2.176
179.500	147.211	79.999	19.984	100.478	20.238	2.140
180.000	147.524	80.018	19.990	100.476	20.239	2.069
180.500	147.765	79.992	19.987	100.469	20.239	2.078
181.000	148.043	80.015	19.995	100.465	20.239	2.086
181.500	148.291	80.009	19.990	100.474	20.239	2.071
182.000	148.553	80.018	19.988	100.468	20.237	2.193
182.500	148.844	80.011	19.994	100.468	20.238	2.162
183.000	149.073	80.008	19.990	100.476	20.237	2.239
183.500	149.370	80.003	19.988	100.479	20.237	2.210
184.000	149.608	80.008	19.988	100.472	20.236	2.268
184.500	149.880	80.011	19.991	100.467	20.238	2.179
185.000	150.126	80.013	19.996	100.470	20.236	2.299
185.501	150.390	80.004	19.989	100.467	20.236	2.302
186.000	150.653	80.017	19.991	100.463	20.237	2.245
186.500	150.904	80.008	19.989	100.463	20.237	2.231
187.000	151.207	80.007	19.989	100.464	20.237	2.217
187.500	151.436	80.008	19.990	100.462	20.236	2.305
188.000	151.686	80.009	19.991	100.459	20.237	2.245
188.500	151.936	80.015	19.990	100.461	20.238	2.172
189.000	152.211	80.008	19.989	100.458	20.236	2.297
189.500	152.469	79.995	19.989	100.457	20.236	2.267
190.000	152.707	80.004	19.991	100.458	20.237	2.194
190.500	152.991	80.011	19.992	100.459	20.235	2.356
191.000	153.223	80.024	19.990	100.460	20.235	2.367
191.500	153.497	80.008	19.988	100.460	20.236	2.292
192.000	153.734	80.009	19.983	100.460	20.237	2.229
192.500	153.988	80.022	19.994	100.453	20.236	2.285
193.000	154.243	80.001	19.989	100.455	20.236	2.272
193.500	154.498	80.006	19.990	100.454	20.237	2.218
194.000	154.774	80.003	19.986	100.455	20.237	2.210
194.500	154.992	80.013	19.987	100.456	20.236	2.293
195.001	155.252	80.014	19.989	100.460	20.238	2.140
195.501	155.510	80.019	19.992	100.457	20.236	2.287
196.001	155.776	80.014	19.992	100.460	20.236	2.272
196.501	156.040	80.003	19.990	100.461	20.236	2.311
197.000	156.247	80.006	19.992	100.461	20.237	2.244
197.500	156.547	80.017	19.984	100.466	20.238	2.132
198.000	156.778	80.004	19.990	100.461	20.238	2.129
198.500	157.037	80.003	19.987	100.458	20.237	2.205
199.000	157.299	80.011	19.988	100.455	20.237	2.192
199.500	157.544	80.009	19.987	100.457	20.238	2.138
200.000	157.801	80.026	19.996	100.453	20.238	2.146
200.500	158.014	80.014	19.992	100.466	20.239	2.099
201.000	158.300	79.999	19.983	100.467	20.238	2.163
201.500	158.528	80.002	19.987	100.465	20.236	2.297
202.000	158.802	80.003	19.986	100.465	20.238	2.142
202.500	159.047	80.003	19.988	100.468	20.238	2.126
203.000	159.302	80.006	19.991	100.459	20.239	2.040
203.500	159.557	80.004	19.989	100.461	20.238	2.131
204.000	159.779	80.015	19.991	100.462	20.239	2.048
204.500	160.059	80.003	19.982	100.464	20.238	2.102
205.000	160.283	80.016	19.991	100.459	20.238	2.129
205.500	160.535	80.012	19.993	100.458	20.237	2.190
206.000	160.813	80.018	19.987	100.457	20.237	2.209
206.500	161.043	80.011	19.985	100.456	20.239	2.061
207.000	161.322	80.007	19.986	100.450	20.239	2.065
207.500	161.532	80.010	19.991	100.450	20.240	2.021
208.000	161.805	80.011	19.990	100.450	20.238	2.165
208.500	162.047	80.009	19.988	100.448	20.237	2.188
209.000	162.316	80.013	19.990	100.451	20.238	2.151
209.500	162.556	80.007	19.986	100.453	20.237	2.234
210.000	162.789	80.012	19.989	100.454	20.239	2.063
210.500	163.054	80.008	19.989	100.454	20.239	2.092
211.000	163.290	80.021	19.995	100.454	20.238	2.158
211.500	163.543	80.010	19.987	100.460	20.238	2.119
212.000	163.780	80.019	19.993	100.458	20.237	2.208
212.500	164.059	80.008	19.989	100.464	20.238	2.104
213.000	164.293	80.019	19.991	100.466	20.238	2.170
213.500	164.527	80.001	19.991	100.467	20.238	2.109
214.000	164.800	80.011	19.992	100.464	20.237	2.210
214.500	165.031	80.011	19.990	100.468	20.236	2.318
215.000	165.308	80.012	19.982	100.463	20.237	2.194
215.500	165.559	80.001	19.988	100.456	20.238	2.122
216.000	165.795	80.006	19.988	100.451	20.237	2.211
216.500	166.048	80.004	19.986	100.448	20.238	2.120
217.000	166.290	80.011	19.988	100.445	20.238	2.162
217.500	166.558	80.003	19.990	100.446	20.237	2.184
218.000	166.782	80.008	19.991	100.453	20.237	2.237
218.500	167.051	80.006	19.988	100.456	20.237	2.244
219.000	167.278	80.008	19.991	100.457	20.238	2.162
219.500	167.542	80.014	19.992	100.458	20.238	2.163
220.000	167.781	79.997	19.983	100.463	20.237	2.254
220.500	168.019	80.010	19.992	100.456	20.237	2.200
221.000	168.291	80.010	19.990	100.457	20.237	2.194
221.500	168.515	80.014	19.989	100.459	20.238	2.121
222.000	168.814	80.011	19.993	100.457	20.238	2.109
222.500	169.019	80.013	19.987	100.458	20.236	2.265
223.000	169.284	80.013	19.997	100.462	20.237	2.198
223.500	169.521	80.009	19.989	100.467	20.238	2.166
224.000	169.785	80.001	19.988	100.464	20.237	2.192
224.500	170.048	80.012	19.990	100.465	20.238	2.142
225.000	170.266	80.008	19.997	100.459	20.238	2.164
225.500	170.572	80.002	19.986	100.465	20.239	2.078
226.000	170.762	80.006	19.994	100.455	20.239	2.093
226.500	171.038	80.000	19.988	100.460	20.238	2.147
227.000	171.291	80.005	19.988	100.459	20.237	2.210
227.500	171.534	80.015	19.989	100.461	20.239	2.092
228.000	171.795	80.003	19.988	100.456	20.238	2.112
228.500	172.021	80.011	19.988	100.459	20.237	2.191
229.000	172.299	80.009	19.994	100.454	20.238	2.164
229.500	172.529	80.002	19.994	100.457	20.239	2.064
230.000	172.790	79.998	19.990	100.462	20.239	2.064
230.500	173.039	80.004	19.989	100.463	20.238	2.163
231.000	173.285	80.008	19.988	100.461	20.237	2.219
231.500	173.559	80.009	19.990	100.459	20.238	2.141
232.000	173.774	80.001	19.989	100.456	20.239	2.058
232.500	174.073	80.010	19.988	100.451	20.241	1.911
233.000	174.307	80.011	19.992	100.447	20.240	2.005
233.500	174.553	80.002	19.984	100.453	20.240	1.987
234.000	174.803	80.009	19.995	100.454	20.240	1.987
234.500	175.058	80.015	19.993	100.459	20.242	1.801
235.000	175.310	80.006	19.990	100.463	20.241	1.925
235.500	175.539	80.010	19.992	100.467	20.240	1.977
236.000	175.835	80.002	19.989	100.467	20.240	1.954
236.500	176.056	80.005	19.993	100.472	20.241	1.896
237.000	176.327	80.015	19.987	100.472	20.241	1.909
237.500	176.561	80.008	19.993	100.467	20.241	1.874
238.000	176.811	80.008	19.989	100.468	20.240	1.947
238.500	177.100	80.019	19.991	100.464	20.240	1.972
239.000	177.325	80.009	19.988	100.461	20.241	1.918
239.500	177.615	80.008	19.990	100.452	20.239	2.090
240.000	177.838	80.009	19.985	100.455	20.239	2.098
240.500	178.100	80.007	19.986	100.447	20.239	2.062
241.000	178.354	80.013	19.993	100.446	20.239	2.078
241.500	178.598	80.007	19.988	100.449	20.240	1.996
242.000	178.868	80.007	19.988	100.451	20.239	2.056
242.500	179.081	79.998	19.984	100.444	20.238	2.131
243.000	179.386	80.005	19.989	100.439	20.238	2.127
243.500	179.612	80.009	19.989	100.441	20.239	2.046
244.000	179.882	80.012	19.991	100.433	20.240	1.981
244.500	180.132	80.010	19.989	100.437	20.240	1.982
245.000	180.376	80.011	19.991	100.436	20.241	1.930
245.500	180.635	80.000	19.990	100.444	20.240	1.962
246.000	180.874	79.998	19.984	100.446	20.240	2.013
246.500	181.148	80.012	19.996	100.447	20.240	1.980
247.000	181.388	80.014	19.991	100.450	20.240	1.946
247.500	181.669	80.003	19.979	100.456	20.241	1.882
248.000	181.910	80.021	19.995	100.448	20.243	1.759
248.500	182.150	80.012	19.983	100.447	20.242	1.804
249.000	182.431	79.999	19.986	100.443	20.240	1.966
249.500	182.662	80.008	19.990	100.435	20.241	1.896
250.000	182.950	80.016	19.992	100.435	20.241	1.875
250.500	183.171	80.016	19.994	100.448	20.240	1.949
251.000	183.455	80.015	19.991	100.446	20.242	1.862
251.500	183.707	80.015	19.994	100.446	20.241	1.925
252.000	183.968	80.008	19.994	100.450	20.242	1.861
252.500	184.214	79.997	19.984	100.454	20.243	1.719
253.000	184.464	80.000	19.989	100.447	20.242	1.864
253.500	184.764	80.008	19.985	100.445	20.241	1.924
254.000	184.989	80.002	19.988	100.441	20.241	1.937
254.500	185.252	80.006	19.987	100.432	20.241	1.889
255.001	185.504	80.007	19.991	100.419	20.241	1.874
255.500	185.754	80.005	19.988	100.419	20.244	1.666
256.000	186.034	80.028	19.998	100.418	20.244	1.676
256.500	186.279	80.018	19.995	100.436	20.242	1.859
257.000	186.549	79.999	19.986	100.445	20.243	1.721
257.500	186.782	80.019	19.995	100.448	20.240	1.945
258.000	187.057	80.014	19.990	100.451	20.242	1.820
258.500	187.330	79.998	19.987	100.451	20.241	1.878
259.000	187.567	80.003	19.989	100.435	20.242	1.843
259.500	187.833	80.008	19.991	100.430	20.241	1.921
260.000	188.072	80.006	19.990	100.432	20.242	1.841
260.500	188.376	80.008	19.988	100.433	20.242	1.812
261.000	188.599	79.998	19.988	100.434	20.242	1.803
261.500	188.856	80.011	19.994	100.435	20.240	1.988
262.000	189.109	80.013	19.992	100.439	20.241	1.883
262.500	189.379	80.011	19.994	100.436	20.242	1.848
263.001	189.639	80.015	19.993	100.439	20.242	1.860
263.500	189.872	80.013	19.988	100.443	20.241	1.869
264.000	190.176	80.019	19.995	100.442	20.241	1.929
264.500	190.418	79.993	19.985	100.442	20.241	1.886
265.000	190.692	80.012	19.987	100.440	20.240	1.993
265.500	190.948	80.013	19.987	100.435	20.241	1.892
266.000	191.188	80.004	19.991	100.428	20.239	2.026
266.500	191.468	80.017	19.990	100.430	20.240	1.954
267.000	191.712	80.002	19.991	100.426	20.240	1.953
267.500	191.999	79.993	19.985	100.428	20.241	1.906
268.000	192.243	80.019	19.993	100.425	20.240	1.981
268.500	192.511	80.024	19.998	100.431	20.239	2.056
269.000	192.752	79.996	19.981	100.438	20.240	2.019
269.500	193.029	80.008	19.989	100.429	20.241	1.895
270.000	193.303	80.008	19.992	100.427	20.241	1.938
270.500	193.534	80.001	19.986	100.430	20.239	2.031
271.000	193.804	80.014	19.991	100.420	20.240	1.995
271.500	194.067	80.009	19.996	100.412	20.239	2.095
272.000	194.338	80.005	19.991	100.421	20.239	2.047
272.500	194.584	80.022	19.993	100.421	20.243	1.786
273.000	194.853	80.007	19.991	100.422	20.238	2.103
273.500	195.100	80.019	19.992	100.428	20.239	2.054
274.000	195.349	80.013	19.991	100.430	20.239	2.057
274.500	195.632	80.005	19.992	100.427	20.239	2.051
275.000	195.872	80.011	19.994	100.430	20.239	2.053
275.500	196.149	80.002	19.986	100.430	20.241	1.901
276.000	196.396	80.014	19.993	100.425	20.240	1.971
276.500	196.648	80.011	19.991	100.423	20.238	2.161
277.000	196.930	80.025	19.992	100.427	20.239	2.054
277.500	197.167	80.009	19.986	100.427	20.240	2.002
278.000	197.452	80.007	19.985	100.422	20.239	2.088
278.500	197.677	80.029	20.000	100.424	20.240	2.003
279.000	197.951	80.008	19.991	100.429	20.241	1.919
279.500	198.219	80.009	19.994	100.424	20.240	1.971
280.000	198.473	80.005	19.987	100.422	20.240	1.994
280.500	198.750	80.022	19.990	100.422	20.239	2.030
281.000	198.985	80.010	19.992	100.422	20.241	1.920
281.500	199.273	80.010	19.993	100.417	20.240	1.950
282.000	199.502	80.000	19.991	100.421	20.241	1.924
282.500	199.778	80.014	19.989	100.421	20.241	1.923
283.000	200.040	80.007	19.994	100.424	20.240	1.951
283.500	200.293	80.006	19.990	100.430	20.240	1.964
284.000	200.582	80.013	19.992	100.427	20.242	1.828
284.500	200.800	79.999	19.988	100.424	20.242	1.856
285.000	201.075	80.012	19.990	100.423	20.241	1.882
285.500	201.328	80.016	19.993	100.423	20.241	1.883
286.000	201.594	79.994	19.985	100.420	20.241	1.924
286.500	201.858	80.012	19.990	100.418	20.242	1.819
287.000	202.098	80.010	19.993	100.418	20.242	1.847
287.500	202.398	80.006	19.989	100.419	20.242	1.860
288.000	202.612	80.015	19.991	100.421	20.242	1.852
288.500	202.924	80.008	19.991	100.421	20.241	1.927
289.000	203.156	80.005	19.992	100.428	20.241	1.932
289.500	203.416	80.004	19.993	100.427	20.240	1.978
290.000	203.672	80.015	19.988	100.429	20.243	1.744
290.500	203.928	80.007	19.991	100.425	20.242	1.854
291.000	204.195	80.018	19.991	100.423	20.241	1.872
291.500	204.433	80.021	19.998	100.419	20.241	1.920
292.000	204.724	80.005	19.990	100.424	20.243	1.769
292.500	204.955	80.005	19.986	100.424	20.242	1.850
293.000	205.234	80.012	19.992	100.424	20.241	1.920
293.500	205.489	80.006	19.989	100.423	20.242	1.856
294.000	205.735	80.011	19.990	100.423	20.240	1.993
294.500	206.006	80.004	19.991	100.418	20.242	1.828
295.001	206.245	80.002	19.988	100.416	20.242	1.833
295.500	206.550	80.013	19.990	100.419	20.241	1.888
296.000	206.788	80.015	19.991	100.419	20.240	1.952
296.500	207.070	80.008	19.990	100.418	20.241	1.926
297.000	207.316	80.015	19.989	100.417	20.241	1.930
297.500	207.564	80.015	19.993	100.413	20.241	1.944
298.000	207.832	80.003	19.989	100.415	20.241	1.942
298.500	208.056	80.014	19.990	100.413	20.239	2.094
299.000	208.345	80.009	19.990	100.413	20.240	1.973
299.500	208.593	80.007	19.990	100.414	20.241	1.942
300.000	208.868	80.010	19.989	100.418	20.241	1.907
300.500	209.123	80.018	19.996	100.416	20.241	1.939
301.000	209.358	80.008	19.993	100.420	20.240	1.978
301.500	209.634	80.007	19.989	100.426	20.241	1.866
302.000	209.880	80.004	19.990	100.427	20.242	1.864
302.500	210.156	80.009	19.991	100.426	20.242	1.811
303.000	210.400	80.014	19.991	100.427	20.239	2.053
303.500	210.672	80.006	19.990	100.426	20.243	1.718
304.000	210.919	80.018	19.994	100.422	20.241	1.903
304.500	211.153	80.017	19.992	100.421	20.242	1.814
305.000	211.439	80.011	19.990	100.422	20.241	1.942
305.500	211.678	80.011	19.991	100.419	20.242	1.802
306.000	211.949	80.019	19.994	100.418	20.239	2.030
306.500	212.196	80.010	19.991	100.418	20.240	2.007
307.000	212.466	80.009	19.992	100.415	20.241	1.936
307.501	212.725	80.013	19.990	100.414	20.240	1.977
308.000	212.974	80.013	19.990	100.414	20.241	1.917
308.500	213.246	80.006	19.987	100.415	20.241	1.921
309.000	213.475	80.010	19.989	100.412	20.242	1.864
309.500	213.746	80.018	19.994	100.412	20.240	2.002
310.000	213.989	80.012	19.986	100.414	20.242	1.830
310.500	214.272	80.015	19.989	100.413	20.242	1.788
311.000	214.526	80.008	19.991	100.410	20.242	1.836
311.500	214.773	80.018	19.990	100.414	20.240	1.954
312.000	215.050	80.019	19.996	100.414	20.241	1.886
312.500	215.270	80.001	19.989	100.418	20.240	1.995
313.000	215.560	80.021	19.993	100.416	20.241	1.935
313.500	215.799	80.007	19.988	100.420	20.240	1.962
314.000	216.062	80.014	19.991	100.415	20.240	1.987
314.500	216.302	80.016	19.991	100.420	20.241	1.915
315.000	216.550	79.998	19.983	100.414	20.239	2.031
315.500	216.831	80.017	19.992	100.412	20.241	1.936
316.000	217.052	80.011	19.989	100.413	20.241	1.902
316.500	217.346	80.006	19.989	100.414	20.240	2.003
317.000	217.569	80.004	19.989	100.411	20.241	1.900
317.500	217.848	80.016	19.989	100.411	20.241	1.928
318.000	218.102	80.004	19.992	100.415	20.239	2.038
318.500	218.351	80.006	19.990	100.414	20.241	1.903
319.000	218.630	80.011	19.990	100.417	20.239	2.040
319.500	218.862	80.014	19.989	100.420	20.242	1.862
320.000	219.137	80.000	19.986	100.420	20.242	1.850
320.500	219.368	80.004	19.986	100.417	20.239	2.040
321.000	219.631	80.019	19.993	100.414	20.240	1.975
321.500	219.892	80.022	19.992	100.415	20.241	1.938
322.000	220.138	80.016	19.982	100.417	20.241	1.893
322.500	220.410	80.009	19.991	100.412	20.241	1.914
323.000	220.639	80.011	19.988	100.414	20.240	1.969
323.500	220.919	80.012	19.994	100.411	20.240	1.998
324.000	221.168	80.005	19.989	100.407	20.240	2.020
324.500	221.422	80.006	19.989	100.399	20.240	1.987
325.000	221.687	80.016	19.991	100.404	20.241	1.931
325.500	221.923	80.000	19.987	100.405	20.240	2.001
326.000	222.200	80.002	19.986	100.403	20.240	1.997
326.500	222.412	80.015	19.991	100.400	20.241	1.896
327.000	222.702	80.019	19.995	100.406	20.240	2.006
327.500	222.951	80.018	19.992	100.408	20.238	2.114
328.000	223.206	80.009	19.990	100.410	20.239	2.084
328.500	223.458	80.010	19.987	100.418	20.239	2.076
329.000	223.703	80.004	19.987	100.420	20.240	1.964
329.500	223.979	80.010	19.989	100.417	20.239	2.049
330.000	224.191	80.014	19.988	100.416	20.238	2.106
330.500	224.504	80.006	19.987	100.411	20.239	2.032
331.000	224.730	80.017	19.990	100.409	20.238	2.117
331.500	224.984	80.008	19.987	100.410	20.238	2.142
332.000	225.238	80.007	19.988	100.409	20.238	2.132
332.500	225.500	80.011	19.989	100.406	20.239	2.093
333.000	225.761	80.005	19.986	100.407	20.238	2.169
333.500	225.983	80.015	19.992	100.405	20.239	2.084
334.000	226.278	80.010	19.989	100.407	20.238	2.160
334.500	226.497	80.016	19.991	100.411	20.237	2.184
335.000	226.775	80.011	19.988	100.416	20.236	2.281
335.500	227.029	80.012	19.991	100.417	20.238	2.099
336.000	227.282	80.001	19.985	100.420	20.236	2.300
336.500	227.536	80.016	19.992	100.413	20.236	2.271
337.000	227.768	80.011	19.987	100.411	20.237	2.203
337.500	228.061	80.022	19.994	100.401	20.237	2.207
338.000	228.271	80.003	19.984	100.401	20.236	2.331
338.500	228.547	80.011	19.988	100.393	20.236	2.259
339.000	228.818	80.006	19.986	100.394	20.236	2.286
339.500	229.048	80.016	19.990	100.390	20.236	2.266
340.000	229.298	80.016	19.994	100.396	20.239	2.099
340.500	229.549	80.002	19.985	100.395	20.238	2.163
341.000	229.830	80.008	19.994	100.399	20.237	2.185
341.500	230.072	80.000	19.986	100.406	20.237	2.203
342.000	230.336	80.006	19.988	100.400	20.238	2.126
342.500	230.598	80.017	19.992	100.396	20.237	2.244
343.000	230.834	80.011	19.989	100.401	20.237	2.244
343.500	231.090	80.012	19.985	100.408	20.236	2.310
344.000	231.328	79.997	19.983	100.402	20.236	2.326
344.500	231.615	80.008	19.988	100.407	20.235	2.360
345.000	231.838	80.013	19.990	100.411	20.239	2.098
345.500	232.110	80.017	19.989	100.409	20.237	2.246
346.000	232.365	80.003	19.990	100.402	20.237	2.225
346.500	232.613	80.002	19.988	100.408	20.236	2.313
347.000	232.874	80.009	19.990	100.410	20.236	2.294
347.500	233.103	80.003	19.985	100.410	20.236	2.260
348.000	233.380	80.006	19.988	100.406	20.236	2.325
348.500	233.623	80.014	19.993	100.406	20.236	2.302
349.000	233.901	80.008	19.989	100.404	20.235	2.351
349.500	234.139	80.008	19.988	100.400	20.236	2.329
350.000	234.380	80.009	19.988	100.394	20.234	2.420
350.500	234.644	80.019	19.991	100.393	20.236	2.268
351.000	234.893	80.005	19.988	100.397	20.235	2.339
351.500	235.156	80.014	19.989	100.398	20.236	2.307
352.000	235.394	80.007	19.986	100.405	20.236	2.311
352.500	235.665	80.011	19.991	100.408	20.234	2.441
353.000	235.916	80.010	19.991	100.409	20.236	2.291
353.500	236.156	80.010	19.991	100.408	20.235	2.369
354.000	236.409	80.011	19.990	100.405	20.235	2.361
354.500	236.650	80.000	19.986	100.404	20.234	2.471
355.000	236.925	80.007	19.989	100.403	20.234	2.418
355.500	237.201	80.006	19.989	100.401	20.235	2.358
356.000	237.442	80.007	19.984	100.401	20.235	2.408
356.500	237.673	80.000	19.987	100.398	20.234	2.466
357.000	237.938	80.002	19.992	100.397	20.232	2.572
357.500	238.202	80.006	19.989	100.405	20.232	2.574
358.000	238.440	80.014	19.990	100.410	20.234	2.458
358.500	238.711	80.002	19.990	100.411	20.234	2.490
359.000	238.947	80.006	19.990	100.412	20.234	2.482
359.500	239.230	80.001	19.990	100.407	20.233	2.549
360.000	239.468	80.018	19.991	100.401	20.233	2.514
360.500	239.712	80.018	19.992	100.397	20.231	2.650
361.000	239.972	80.015	19.988	100.398	20.232	2.618
361.500	240.199	80.008	19.993	100.398	20.232	2.644
362.000	240.498	80.003	19.984	100.403	20.231	2.704
362.500	240.717	80.017	19.993	100.402	20.232	2.631
363.000	240.976	80.010	19.991	100.406	20.229	2.838
363.500	241.231	80.008	19.992	100.406	20.231	2.705
364.000	241.486	80.006	19.990	100.405	20.229	2.808
364.500	241.746	80.008	19.988	100.402	20.229	2.819
365.000	241.970	80.005	19.988	100.399	20.229	2.816
365.500	242.268	80.014	19.990	100.393	20.228	2.944
366.000	242.483	80.005	19.989	100.390	20.229	2.863
366.500	242.737	80.006	19.996	100.389	20.228	2.906
367.000	243.005	80.013	19.986	100.394	20.228	2.884
367.500	243.244	80.011	19.984	100.395	20.228	2.887
368.000	243.516	80.000	19.988	100.395	20.228	2.932
368.500	243.737	80.001	19.991	100.400	20.228	2.886
369.000	244.034	80.008	19.989	100.402	20.227	2.973
369.500	244.267	80.006	19.990	100.397	20.226	3.058
370.000	244.523	80.012	19.993	100.401	20.227	3.031
370.500	244.765	80.004	19.991	100.402	20.227	3.014
371.000	245.017	80.004	19.989	100.401	20.225	3.117
371.500	245.286	80.011	19.990	100.400	20.226	3.065
372.000	245.514	80.018	19.992	100.400	20.225	3.135
372.500	245.789	80.001	19.988	100.396	20.225	3.124
373.000	246.032	80.016	19.992	100.395	20.224	3.216
373.500	246.295	80.012	19.993	100.393	20.224	3.205
374.000	246.523	80.012	19.990	100.394	20.224	3.240
374.500	246.776	80.020	19.992	100.397	20.223	3.280
375.000	247.039	80.005	19.987	100.403	20.223	3.275
375.500	247.267	80.017	19.993	100.401	20.223	3.300
376.000	247.554	80.016	19.993	100.405	20.223	3.338
376.500	247.785	80.000	19.985	100.407	20.223	3.288
377.000	248.058	80.015	19.996	100.399	20.222	3.381
377.500	248.304	80.018	19.994	100.398	20.222	3.357
378.000	248.552	80.012	19.989	100.401	20.222	3.420
378.500	248.812	80.006	19.990	100.395	20.222	3.393
379.000	249.041	80.007	19.989	100.389	20.220	3.512
379.500	249.319	80.006	19.987	100.394	20.221	3.443
380.000	249.540	80.001	19.987	100.391	20.222	3.412
380.500	249.807	80.006	19.991	100.386	20.219	3.599
381.000	250.041	80.011	19.992	100.387	20.220	3.582
381.500	250.303	80.006	19.992	100.386	20.218	3.696
382.000	250.558	80.011	19.988	100.385	20.218	3.662
382.500	250.775	80.009	19.988	100.382	20.217	3.811
383.000	251.081	80.011	19.990	100.381	20.217	3.763
383.500	251.314	80.022	19.996	100.379	20.219	3.604
384.000	251.579	80.005	19.988	100.383	20.218	3.708
384.500	251.824	80.008	19.989	100.380	20.216	3.853
385.000	252.061	80.018	19.993	100.380	20.216	3.839
385.500	252.304	80.014	19.992	100.384	20.216	3.878
386.000	252.544	80.002	19.986	100.387	20.214	3.984
386.500	252.844	80.020	19.992	100.379	20.214	3.990
387.000	253.054	80.020	19.994	100.382	20.215	3.966
387.500	253.314	80.009	19.989	100.385	20.214	4.019
388.000	253.564	80.010	19.990	100.381	20.211	4.211
388.500	253.814	80.002	19.987	100.380	20.212	4.141
389.000	254.081	80.004	19.985	100.381	20.213	4.059
389.500	254.317	80.010	19.988	100.378	20.213	4.089
390.000	254.598	80.010	19.990	100.375	20.212	4.159
390.500	254.821	80.005	19.989	100.376	20.212	4.179
391.000	255.094	80.007	19.989	100.376	20.212	4.208
391.500	255.332	80.008	19.987	100.378	20.210	4.334
392.000	255.577	80.011	19.991	100.379	20.211	4.283
392.500	255.836	80.017	19.992	100.382	20.210	4.318
393.000	256.071	80.002	19.987	100.385	20.211	4.247
393.500	256.333	80.004	19.989	100.387	20.211	4.283
394.000	256.567	80.018	19.992	100.391	20.211	4.275
394.500	256.820	80.013	19.991	100.399	20.210	4.354
395.000	257.078	80.014	19.993	100.403	20.208	4.452
395.500	257.323	80.009	19.990	100.410	20.210	4.320
396.000	257.577	80.008	19.990	100.413	20.211	4.262
396.500	257.806	80.008	19.990	100.417	20.209	4.417
397.000	258.096	80.006	19.987	100.417	20.207	4.522
397.500	258.341	80.013	19.992	100.417	20.208	4.501
398.000	258.583	80.009	19.990	100.418	20.205	4.691
398.500	258.826	80.006	19.988	100.419	20.205	4.678
399.000	259.086	80.005	19.987	100.417	20.206	4.606
399.500	259.325	80.009	19.990	100.412	20.205	4.706
400.000	259.577	80.008	19.990	100.414	20.205	4.711
400.500	259.865	80.007	19.989	100.407	20.205	4.733
401.000	260.076	80.004	19.987	100.400	20.205	4.746
401.500	260.350	80.007	19.988	100.400	20.204	4.768
402.000	260.592	80.017	19.993	100.400	20.204	4.822
402.500	260.844	80.013	19.991	100.397	20.203	4.852
403.000	261.102	80.007	19.989	100.396	20.202	4.947
403.500	261.331	80.010	19.988	100.393	20.201	5.058
404.001	261.615	80.008	19.990	100.390	20.200	5.095
404.500	261.832	80.005	19.989	100.391	20.201	5.014
405.000	262.088	80.009	19.988	100.389	20.200	5.114
405.500	262.336	80.010	19.991	100.390	20.200	5.134
406.000	262.601	80.003	19.985	100.394	20.197	5.361
406.500	262.864	80.013	19.992	100.394	20.198	5.284
407.000	263.098	80.002	19.986	100.398	20.197	5.341
407.500	263.381	80.002	19.989	100.400	20.196	5.435
408.000	263.601	79.998	19.984	100.402	20.196	5.399
408.500	263.870	80.024	19.998	100.402	20.195	5.527
409.000	264.098	80.012	19.991	100.415	20.193	5.619
409.500	264.349	80.012	19.992	100.414	20.192	5.716
410.000	264.610	80.013	19.992	100.420	20.192	5.732
410.500	264.850	80.009	19.989	100.423	20.192	5.748
411.000	265.103	80.009	19.989	100.424	20.192	5.760
411.500	265.357	80.003	19.990	100.415	20.190	5.858
412.000	265.607	80.005	19.987	100.410	20.189	5.991
412.500	265.868	80.014	19.993	100.406	20.188	6.081
413.000	266.122	80.017	19.994	100.403	20.188	6.053
413.500	266.384	80.015	19.991	100.410	20.188	6.064
414.000	266.607	80.017	19.990	100.411	20.186	6.236
414.500	266.890	80.011	19.991	100.408	20.185	6.273
415.000	267.123	80.004	19.989	100.405	20.185	6.279
415.500	267.381	80.006	19.989	100.403	20.184	6.353
416.000	267.614	80.015	19.998	100.399	20.185	6.262
416.500	267.879	80.011	19.994	100.406	20.183	6.456
417.000	268.145	80.014	19.996	100.412	20.183	6.430
417.500	268.364	80.007	19.987	100.421	20.182	6.500
418.000	268.655	80.012	19.990	100.422	20.180	6.642
418.500	268.901	80.023	19.992	100.423	20.180	6.645
419.000	269.143	80.004	19.989	100.417	20.179	6.782
419.501	269.383	80.008	19.989	100.417	20.179	6.735
420.000	269.648	79.998	19.985	100.408	20.178	6.854
420.500	269.905	80.010	19.990	100.406	20.176	7.009
421.000	270.146	80.002	19.986	100.404	20.177	6.925
421.500	270.430	80.015	19.993	100.397	20.175	7.037
422.000	270.652	80.009	19.988	100.398	20.173	7.206
422.500	270.912	80.003	19.988	100.397	20.173	7.234
423.000	271.154	80.006	19.987	100.399	20.173	7.248
423.500	271.410	80.007	19.991	100.394	20.173	7.241
424.000	271.671	80.019	19.994	100.399	20.169	7.541
424.500	271.899	80.011	19.990	100.400	20.170	7.474
425.000	272.175	80.008	19.989	100.407	20.168	7.621
425.500	272.398	80.007	19.989	100.410	20.166	7.740
426.000	272.674	80.008	19.989	100.414	20.167	7.699
426.500	272.933	80.012	19.991	100.416	20.165	7.808
427.000	273.175	80.008	19.991	100.415	20.163	8.018
427.500	273.441	80.014	19.993	100.416	20.162	8.095
428.000	273.662	80.004	19.988	100.419	20.162	8.089
428.500	273.960	80.010	19.990	100.421	20.160	8.222
429.000	274.184	80.013	19.990	100.418	20.161	8.142
429.500	274.434	80.007	19.988	100.415	20.160	8.201
430.000	274.686	80.002	19.988	100.411	20.159	8.329
430.500	274.938	80.009	19.989	100.406	20.157	8.456
431.000	275.191	80.008	19.989	100.407	20.156	8.526
431.500	275.439	80.009	19.989	100.408	20.155	8.654
432.000	275.720	80.010	19.990	100.412	20.154	8.708
432.500	275.947	80.007	19.990	100.415	20.153	8.780
433.000	276.207	80.010	19.989	100.418	20.152	8.834
433.500	276.443	80.003	19.987	100.419	20.152	8.856
434.000	276.704	80.011	19.989	100.415	20.150	9.024
434.500	276.963	80.012	19.990	100.414	20.149	9.066
435.000	277.186	80.013	19.992	100.413	20.148	9.153
435.500	277.468	80.013	19.992	100.416	20.148	9.189
436.000	277.710	80.015	19.993	100.418	20.147	9.242
436.500	277.967	80.008	19.989	100.424	20.145	9.375
437.000	278.214	80.009	19.990	100.424	20.145	9.436
437.500	278.458	80.009	19.989	100.420	20.143	9.565
438.000	278.729	80.014	19.994	100.417	20.143	9.597
438.500	278.954	80.005	19.987	100.418	20.142	9.645
439.000	279.259	80.007	19.989	100.415	20.141	9.740
439.500	279.471	80.004	19.987	100.416	20.140	9.763
440.000	279.746	80.007	19.989	100.417	20.136	10.118
440.500	279.988	80.009	19.991	100.416	20.136	10.084
441.000	280.226	80.011	19.990	100.413	20.136	10.135
441.500	280.513	80.013	19.990	100.415	20.134	10.233
442.000	280.731	80.012	19.990	100.416	20.134	10.299
442.500	281.014	80.003	19.987	100.420	20.131	10.500
443.000	281.235	80.007	19.989	100.418	20.132	10.415
443.500	281.519	80.012	19.992	100.405	20.129	10.663
444.000	281.749	80.012	19.991	100.404	20.127	10.834
444.500	281.994	80.010	19.990	100.408	20.126	10.885
445.000	282.260	80.011	19.991	100.410	20.126	10.928
445.500	282.499	80.006	19.988	100.418	20.123	11.097
446.000	282.782	79.999	19.985	100.430	20.124	11.068
446.500	283.018	80.009	19.989	100.433	20.121	11.282
447.000	283.289	80.003	19.987	100.428	20.120	11.321
447.500	283.520	80.004	19.988	100.423	20.120	11.328
448.000	283.770	80.005	19.987	100.416	20.119	11.449
448.500	284.032	80.006	19.990	100.417	20.116	11.657
449.000	284.254	80.007	19.990	100.415	20.115	11.785
449.500	284.542	80.016	19.991	100.415	20.114	11.839
450.000	284.776	79.998	19.983	100.424	20.112	11.958
450.500	285.045	80.007	19.988	100.423	20.111	12.057
451.000	285.292	80.014	19.990	100.422	20.111	12.062
451.500	285.525	80.001	19.986	100.422	20.108	12.271
452.000	285.789	79.990	19.982	100.420	20.107	12.398
452.500	286.015	80.015	19.990	100.409	20.108	12.319
453.000	286.305	80.018	19.993	100.415	20.106	12.461
453.500	286.521	80.012	19.990	100.420	20.104	12.591
454.000	286.795	80.007	19.989	100.425	20.101	12.879
454.500	287.032	80.014	19.992	100.426	20.098	13.041
455.000	287.294	80.003	19.986	100.434	20.098	13.116
455.500	287.556	80.000	19.986	100.428	20.096	13.200
456.000	287.777	80.009	19.991	100.422	20.095	13.335
456.500	288.053	80.003	19.988	100.417	20.094	13.416
457.000	288.282	80.015	19.992	100.415	20.091	13.625
457.500	288.567	80.001	19.985	100.416	20.090	13.717
458.000	288.800	80.011	19.990	100.416	20.089	13.817
458.500	289.029	80.004	19.988	100.423	20.087	13.941
459.000	289.292	80.019	19.993	100.422	20.085	14.125
459.500	289.538	80.006	19.988	100.430	20.082	14.304
460.000	289.818	80.014	19.991	100.426	20.081	14.389
460.500	290.043	80.020	19.996	100.432	20.079	14.535
461.000	290.308	80.007	19.990	100.435	20.078	14.635
461.500	290.563	80.005	19.988	100.438	20.076	14.807
462.000	290.799	80.004	19.987	100.437	20.075	14.899
462.500	291.065	80.007	19.990	100.439	20.073	15.045
463.000	291.305	80.005	19.989	100.436	20.072	15.141
463.500	291.583	80.001	19.986	100.430	20.069	15.333
464.000	291.791	79.998	19.987	100.427	20.068	15.447
464.500	292.067	79.996	19.984	100.426	20.065	15.696
465.000	292.305	80.010	19.990	100.422	20.065	15.645
465.500	292.550	80.017	19.993	100.425	20.062	15.885
466.000	292.815	79.993	19.982	100.432	20.060	16.029
466.500	293.024	80.007	19.989	100.428	20.060	16.078
467.000	293.320	80.003	19.988	100.431	20.059	16.143
467.500	293.552	80.004	19.987	100.436	20.057	16.260
468.000	293.818	80.014	19.992	100.436	20.055	16.456
468.500	294.057	80.004	19.989	100.436	20.052	16.657
469.000	294.311	80.004	19.987	100.439	20.051	16.773
469.500	294.566	80.016	19.993	100.433	20.051	16.735
470.000	294.795	80.011	19.991	100.438	20.046	17.122
470.500	295.079	80.012	19.993	100.441	20.046	17.184
471.000	295.294	80.016	19.993	100.441	20.044	17.319
471.500	295.552	80.004	19.988	100.451	20.041	17.510
472.000	295.806	80.009	19.989	100.457	20.041	17.568
472.500	296.053	80.021	19.994	100.454	20.038	17.762
473.000	296.326	80.006	19.988	100.456	20.037	17.871
473.500	296.557	80.006	19.988	100.453	20.034	18.060
474.000	296.812	80.009	19.990	100.445	20.033	18.124
474.500	297.055	80.006	19.989	100.447	20.032	18.254
475.000	297.316	80.009	19.989	100.450	20.029	18.471
475.500	297.565	80.012	19.991	100.448	20.029	18.483
476.000	297.790	80.008	19.990	100.451	20.026	18.722
476.500	298.071	80.010	19.992	100.455	20.024	18.878
477.000	298.290	80.012	19.991	100.457	20.022	19.042
477.500	298.578	80.003	19.988	100.459	20.021	19.126
478.000	298.785	80.007	19.990	100.456	20.019	19.252
478.500	299.063	80.008	19.991	100.455	20.017	19.436
479.000	299.309	80.001	19.986	100.458	20.015	19.586
479.500	299.546	80.015	19.993	100.454	20.011	19.895
480.000	299.807	80.013	19.992	100.456	20.010	19.973
480.500	300.043	80.009	19.989	100.460	20.008	20.124
481.000	300.318	80.011	19.991	100.461	20.007	20.217
481.500	300.556	80.012	19.993	100.461	20.005	20.389
482.000	300.799	80.012	19.992	100.466	20.002	20.567
482.500	301.048	80.011	19.990	100.464	20.002	20.624
483.000	301.281	80.002	19.987	100.462	19.999	20.789
483.500	301.549	80.011	19.990	100.460	19.998	20.933
484.000	301.785	80.010	19.991	100.459	19.994	21.228
484.500	302.080	80.007	19.989	100.458	19.993	21.289
485.000	302.283	80.010	19.989	100.455	19.991	21.419
485.500	302.534	80.009	19.990	100.455	19.988	21.687
486.000	302.816	80.006	19.989	100.458	19.987	21.792
486.500	303.038	80.010	19.992	100.458	19.985	21.948
487.000	303.304	80.008	19.990	100.460	19.981	22.208
487.500	303.542	80.005	19.988	100.462	19.979	22.350
488.000	303.802	80.011	19.990	100.461	19.975	22.664
488.500	304.046	80.010	19.991	100.460	19.974	22.762
489.000	304.292	80.013	19.991	100.461	19.972	22.935
489.500	304.557	80.008	19.989	100.457	19.969	23.159
490.000	304.785	80.011	19.990	100.456	19.967	23.301
490.500	305.061	80.011	19.990	100.458	19.966	23.394
491.000	305.304	80.009	19.990	100.460	19.961	23.786
491.500	305.554	80.014	19.993	100.460	19.960	23.856
492.000	305.783	80.008	19.989	100.466	19.958	24.010
492.500	306.052	80.014	19.991	100.467	19.955	24.248
493.000	306.294	80.012	19.991	100.468	19.954	24.359
493.500	306.546	80.012	19.990	100.468	19.950	24.621
494.000	306.820	80.010	19.990	100.469	19.948	24.791
494.500	307.036	80.007	19.988	100.463	19.945	25.034
495.000	307.330	80.010	19.990	100.462	19.942	25.314
495.500	307.538	80.001	19.986	100.461	19.940	25.437
496.000	307.808	80.010	19.990	100.457	19.937	25.664
496.500	308.060	80.009	19.988	100.457	19.935	25.843
497.000	308.297	80.015	19.992	100.456	19.932	26.038
497.500	308.563	80.009	19.989	100.460	19.930	26.237
498.000	308.770	80.014	19.990	100.463	19.928	26.374
498.500	309.069	80.005	19.987	100.471	19.925	26.602
499.000	309.301	80.005	19.986	100.469	19.924	26.654
499.500	309.576	80.011	19.990	100.472	19.921	26.957
500.000	309.808	80.004	19.987	100.475	19.918	27.135
500.500	310.042	80.007	19.987	100.477	19.916	27.354
501.000	310.306	80.009	19.989	100.475	19.914	27.460
501.500	310.534	80.004	19.988	100.483	19.912	27.605
502.000	310.805	80.007	19.985	100.487	19.910	27.779
502.500	311.042	80.007	19.987	100.483	19.906	28.097
503.000	311.311	80.015	19.991	100.484	19.903	28.371
503.500	311.549	80.012	19.990	100.489	19.901	28.513
504.000	311.812	80.017	19.992	100.489	19.897	28.774
504.500	312.069	80.011	19.989	100.492	19.896	28.901
505.000	312.285	80.000	19.984	100.494	19.891	29.241
505.500	312.574	80.016	19.991	100.491	19.889	29.420
506.000	312.797	80.010	19.990	100.491	19.887	29.623
506.500	313.053	80.007	19.986	100.492	19.883	29.894
507.000	313.299	80.007	19.987	100.488	19.880	30.118
507.500	313.538	80.010	19.990	100.489	19.878	30.265
508.000	313.802	80.018	19.992	100.494	19.874	30.595
508.500	314.035	80.010	19.989	100.495	19.872	30.793
509.000	314.323	80.018	19.992	100.493	19.869	31.030
509.500	314.540	80.012	19.991	100.499	19.866	31.193
510.000	314.811	80.015	19.993	100.504	19.862	31.509
510.500	315.048	80.014	19.991	100.506	19.861	31.584
511.000	315.303	80.003	19.986	100.505	19.859	31.777
511.500	315.559	80.006	19.987	100.504	19.854	32.149
512.000	315.782	80.005	19.987	100.499	19.853	32.208
512.500	316.066	80.010	19.989	100.495	19.849	32.583
513.000	316.294	80.016	19.993	100.493	19.848	32.634
513.500	316.556	80.007	19.988	100.499	19.843	33.018
514.000	316.806	79.998	19.987	100.499	19.842	33.116
514.500	317.055	80.007	19.990	100.503	19.838	33.388
515.000	317.313	80.009	19.991	100.506	19.835	33.651
515.500	317.523	80.011	19.991	100.508	19.832	33.913
516.000	317.807	80.006	19.989	100.505	19.828	34.190
516.500	318.035	80.006	19.989	100.506	19.828	34.202
517.000	318.304	80.005	19.990	100.503	19.825	34.428
517.500	318.557	80.016	19.994	100.501	19.821	34.737
518.000	318.794	80.004	19.987	100.501	19.817	35.046
518.500	319.036	79.999	19.985	100.496	19.816	35.151
519.000	319.291	80.011	19.993	100.493	19.812	35.422
519.500	319.579	80.011	19.992	100.497	19.808	35.726
520.000	319.781	80.007	19.989	100.499	19.806	35.932
520.500	320.043	80.007	19.991	100.495	19.802	36.193
521.000	320.297	80.005	19.989	100.497	19.801	36.297
521.500	320.518	79.998	19.988	100.500	19.797	36.652
522.000	320.796	80.013	19.991	100.494	19.795	36.770
522.500	321.029	80.007	19.989	100.493	19.794	36.846
523.000	321.300	80.007	19.990	100.492	19.789	37.288
523.500	321.530	80.014	19.989	100.493	19.785	37.550
524.000	321.809	80.005	19.989	100.494	19.782	37.830
524.500	322.042	79.995	19.985	100.497	19.781	37.913
525.000	322.287	80.002	19.987	100.494	19.774	38.464
525.500	322.541	80.008	19.991	100.493	19.772	38.603
526.000	322.762	80.001	19.988	100.496	19.767	38.953
526.500	323.031	80.010	19.992	100.497	19.767	39.001
527.000	323.260	79.999	19.985	100.500	19.764	39.235
527.500	323.532	80.002	19.988	100.503	19.759	39.647
528.000	323.781	80.014	19.990	100.508	19.757	39.802
528.500	324.033	80.002	19.988	100.511	19.753	40.096
529.000	324.282	80.008	19.990	100.516	19.750	40.327
529.500	324.505	80.004	19.989	100.519	19.747	40.561
530.000	324.800	80.013	19.993	100.524	19.744	40.804
530.500	325.007	80.007	19.992	100.532	19.739	41.150
531.000	325.276	80.007	19.990	100.533	19.736	41.396
531.500	325.522	80.003	19.988	100.536	19.732	41.731
532.000	325.762	80.015	19.993	100.537	19.729	41.934
532.500	326.011	80.009	19.991	100.545	19.726	42.193
533.000	326.252	80.002	19.990	100.548	19.722	42.473
533.500	326.502	80.007	19.988	100.547	19.719	42.758
534.000	326.760	80.012	19.993	100.545	19.716	42.987
534.500	327.027	80.001	19.987	100.548	19.713	43.240
535.000	327.250	80.013	19.993	100.542	19.710	43.465
535.500	327.501	80.002	19.986	100.538	19.706	43.794
536.000	327.766	80.009	19.991	100.535	19.703	44.031
536.500	327.986	80.008	19.989	100.540	19.698	44.370
537.000	328.280	80.000	19.989	100.537	19.696	44.584
537.500	328.495	80.003	19.988	100.536	19.692	44.858
538.000	328.776	80.001	19.988	100.536	19.686	45.363
538.500	329.005	80.009	19.991	100.539	19.684	45.473
539.000	329.229	80.011	19.992	100.538	19.681	45.734
539.500	329.504	80.006	19.989	100.542	19.676	46.098
540.000	329.712	80.005	19.990	100.549	19.672	46.431
540.500	330.012	80.003	19.989	100.555	19.668	46.759
541.000	330.229	80.003	19.988	100.559	19.664	47.067
541.500	330.498	80.011	19.991	100.562	19.661	47.275
542.000	330.731	80.008	19.992	100.563	19.657	47.606
542.500	330.986	80.007	19.990	100.564	19.652	48.029
543.000	331.223	80.005	19.990	100.557	19.648	48.301
543.501	331.476	80.016	19.996	100.559	19.645	48.553
544.000	331.733	80.007	19.991	100.567	19.641	48.847
544.500	331.980	80.014	19.993	100.572	19.637	49.201
545.000	332.229	80.007	19.992	100.586	19.633	49.504
545.500	332.467	80.004	19.988	100.595	19.629	49.798
546.000	332.717	79.996	19.987	100.596	19.625	50.136
546.500	332.974	80.001	19.987	100.588	19.621	50.454
547.000	333.211	80.008	19.991	100.582	19.617	50.714
547.500	333.494	80.001	19.990	100.571	19.612	51.106
548.000	333.741	80.004	19.991	100.570	19.607	51.524
548.500	333.978	80.005	19.989	100.573	19.605	51.686
549.000	334.211	80.003	19.991	100.578	19.600	52.080
549.500	334.447	80.013	19.993	100.583	19.597	52.295
550.000	334.714	80.007	19.992	100.584	19.592	52.702
550.500	334.948	80.012	19.991	100.587	19.588	53.023
551.000	335.217	80.002	19.989	100.588	19.582	53.484
551.500	335.450	80.004	19.989	100.585	19.579	53.753
552.000	335.731	79.998	19.987	100.587	19.574	54.107
552.500	335.952	80.003	19.987	100.585	19.569	54.478
553.000	336.206	80.000	19.987	100.583	19.565	54.798
553.500	336.482	80.002	19.989	100.583	19.561	55.152
554.000	336.697	80.008	19.992	100.590	19.555	55.623
554.500	336.964	80.005	19.992	100.592	19.551	55.882
555.000	337.196	80.013	19.994	100.600	19.546	56.289
555.500	337.450	80.006	19.991	100.610	19.543	56.544
556.000	337.676	80.014	19.994	100.613	19.540	56.819
556.500	337.955	80.016	19.993	100.618	19.535	57.178
557.000	338.213	80.005	19.990	100.622	19.528	57.698
557.500	338.428	80.007	19.991	100.620	19.524	58.022
558.000	338.716	79.997	19.986	100.614	19.521	58.272
558.500	338.935	80.004	19.988	100.612	19.515	58.721
559.000	339.192	80.013	19.992	100.607	19.510	59.119
559.500	339.442	80.005	19.989	100.605	19.506	59.470
560.000	339.679	80.001	19.988	100.607	19.498	60.069
560.500	339.949	80.004	19.988	100.608	19.494	60.398
561.000	340.178	80.000	19.988	100.610	19.490	60.735
561.500	340.466	80.010	19.992	100.611	19.485	61.128
562.000	340.687	80.006	19.989	100.615	19.481	61.453
562.500	340.931	80.007	19.990	100.616	19.474	61.934
563.000	341.185	80.012	19.992	100.619	19.471	62.207
563.500	341.429	80.003	19.989	100.622	19.465	62.695
564.000	341.690	80.013	19.990	100.625	19.461	62.992
564.500	341.914	80.014	19.992	100.624	19.454	63.509
565.001	342.188	80.014	19.993	100.631	19.450	63.893
565.500	342.424	80.009	19.990	100.639	19.446	64.173
566.000	342.674	80.012	19.992	100.645	19.439	64.724
566.500	342.940	80.009	19.991	100.654	19.433	65.186
567.000	343.195	79.998	19.986	100.657	19.428	65.549
567.500	343.434	80.000	19.986	100.647	19.424	65.885
568.000	343.659	80.010	19.991	100.643	19.417	66.450
568.500	343.942	80.007	19.990	100.642	19.412	66.846
569.000	344.167	80.007	19.989	100.639	19.407	67.207
569.500	344.430	80.010	19.991	100.639	19.402	67.596
570.000	344.662	80.000	19.987	100.650	19.395	68.128
570.500	344.908	80.007	19.990	100.651	19.391	68.467
571.000	345.174	80.008	19.989	100.649	19.384	69.025
571.500	345.399	80.011	19.991	100.646	19.380	69.338
572.000	345.696	80.007	19.990	100.649	19.374	69.803
572.500	345.908	80.006	19.990	100.648	19.368	70.263
573.000	346.175	80.005	19.987	100.651	19.363	70.648
573.500	346.406	80.003	19.990	100.652	19.360	70.932
574.001	346.666	80.006	19.988	100.658	19.352	71.549
574.500	346.908	80.010	19.990	100.656	19.348	71.878
575.000	347.140	80.008	19.991	100.656	19.341	72.392
575.500	347.425	80.005	19.988	100.657	19.336	72.811
576.000	347.655	80.004	19.988	100.658	19.330	73.228
576.500	347.935	80.008	19.990	100.655	19.324	73.739
577.000	348.150	80.003	19.987	100.656	19.320	74.070
577.500	348.390	80.009	19.990	100.654	19.314	74.530
578.000	348.657	80.011	19.990	100.653	19.308	74.951
578.500	348.894	80.010	19.991	100.656	19.302	75.480
579.000	349.170	80.014	19.992	100.658	19.297	75.894
579.500	349.396	80.018	19.991	100.659	19.292	76.262
580.000	349.672	80.010	19.990	100.663	19.285	76.807
580.500	349.903	80.017	19.993	100.666	19.280	77.174
581.000	350.150	80.008	19.991	100.669	19.275	77.580
581.500	350.408	80.011	19.989	100.671	19.270	77.947
582.000	350.629	80.015	19.993	100.671	19.262	78.603
582.500	350.929	80.009	19.989	100.672	19.256	79.055
583.000	351.154	80.003	19.988	100.672	19.253	79.338
583.500	351.402	80.011	19.992	100.669	19.247	79.752
584.001	351.643	80.012	19.991	100.674	19.243	80.116
584.501	351.883	80.006	19.988	100.682	19.237	80.548
585.000	352.169	80.008	19.990	100.685	19.234	80.819
585.500	352.382	80.012	19.992	100.688	19.228	81.302
586.000	352.671	80.005	19.988	100.697	19.222	81.708
586.500	352.895	80.003	19.986	100.695	19.216	82.208
587.000	353.144	80.012	19.989	100.692	19.212	82.549
587.500	353.371	80.012	19.991	100.692	19.206	82.994
588.000	353.640	80.009	19.992	100.697	19.201	83.385
588.500	353.901	80.003	19.988	100.696	19.197	83.703
589.000	354.124	80.009	19.992	100.697	19.193	84.022
589.500	354.392	80.018	19.994	100.698	19.188	84.387
590.000	354.622	80.006	19.989	100.701	19.182	84.850
590.500	354.892	80.005	19.990	100.697	19.177	85.243
591.000	355.137	80.009	19.990	100.696	19.173	85.555
591.500	355.385	80.004	19.987	100.698	19.167	86.039
592.000	355.649	80.010	19.989	100.698	19.163	86.360
592.500	355.868	80.008	19.990	100.696	19.159	86.677
593.000	356.153	80.014	19.990	100.699	19.156	86.918
593.500	356.372	80.011	19.991	100.697	19.151	87.274
594.000	356.614	80.008	19.992	100.697	19.148	87.541
594.500	356.862	80.004	19.988	100.700	19.142	87.978
595.000	357.108	80.006	19.987	100.696	19.140	88.161
595.500	357.376	80.004	19.989	100.689	19.135	88.552
596.000	357.601	80.011	19.989	100.689	19.132	88.793
596.500	357.886	80.007	19.989	100.686	19.129	89.016
597.000	358.108	80.010	19.991	100.682	19.128	89.130
597.500	358.365	80.009	19.990	100.687	19.125	89.376
598.000	358.613	80.007	19.989	100.693	19.122	89.582
598.500	358.872	80.012	19.991	100.695	19.119	89.835
599.000	359.127	80.008	19.990	100.697	19.116	90.025
599.500	359.345	80.004	19.987	100.694	19.115	90.092
600.000	359.622	80.011	19.991	100.689	19.113	90.257
600.500	359.846	80.007	19.988	100.686	19.112	90.333
601.000	360.101	80.007	19.989	100.685	19.109	90.534
601.500	360.358	80.017	19.993	100.683	19.109	90.541
602.000	360.603	80.013	19.991	100.688	19.109	90.561
602.501	360.852	80.003	19.987	100.691	19.107	90.692
603.001	361.094	80.010	19.989	100.691	19.107	90.736
603.500	361.369	80.003	19.989	100.685	19.107	90.745
604.000	361.593	80.011	19.990	100.678	19.105	90.875
604.501	361.836	80.016	19.993	100.673	19.106	90.810
605.001	362.110	80.003	19.986	100.667	19.106	90.759
605.500	362.339	80.014	19.992	100.660	19.107	90.670
606.000	362.607	80.009	19.988	100.661	19.107	90.705
606.500	362.836	80.013	19.991	100.660	19.108	90.592
607.000	363.105	80.012	19.991	100.658	19.109	90.514
607.500	363.343	80.009	19.989	100.655	19.110	90.409
608.000	363.587	80.006	19.988	100.652	19.112	90.285
608.500	363.838	80.012	19.991	100.646	19.115	90.048
609.000	364.089	80.008	19.988	100.643	19.118	89.800
609.500	364.344	80.008	19.988	100.636	19.121	89.535
610.000	364.561	80.008	19.988	100.627	19.123	89.381
610.500	364.850	80.011	19.989	100.624	19.126	89.144
611.000	365.081	80.006	19.988	100.621	19.131	88.776
611.500	365.339	80.012	19.990	100.615	19.135	88.466
612.000	365.575	80.011	19.991	100.614	19.140	88.099
612.500	365.826	80.013	19.991	100.614	19.144	87.726
613.000	366.112	80.008	19.990	100.615	19.150	87.273
613.500	366.322	80.011	19.990	100.612	19.156	86.803
614.000	366.586	80.003	19.986	100.609	19.161	86.367
614.500	366.829	80.013	19.992	100.599	19.167	85.889
615.000	367.089	80.004	19.987	100.593	19.173	85.430
615.500	367.331	80.009	19.990	100.583	19.179	84.976
616.000	367.587	80.006	19.987	100.579	19.187	84.375
616.500	367.843	80.011	19.991	100.574	19.193	83.889
617.000	368.054	80.009	19.990	100.576	19.199	83.390
617.500	368.340	80.006	19.990	100.571	19.208	82.712
618.000	368.568	80.005	19.987	100.566	19.215	82.146
618.500	368.832	80.010	19.989	100.561	19.224	81.462
619.000	369.097	80.006	19.989	100.556	19.232	80.824
619.500	369.327	80.009	19.988	100.547	19.241	80.073
620.000	369.576	80.005	19.990	100.542	19.250	79.407
620.500	369.808	80.009	19.988	100.539	19.259	78.665
621.000	370.098	80.011	19.990	100.532	19.269	77.862
621.500	370.321	80.016	19.993	100.529	19.279	77.096
622.001	370.596	80.011	19.990	100.525	19.289	76.322
622.500	370.816	80.011	19.991	100.525	19.300	75.505
623.000	371.082	80.017	19.990	100.520	19.311	74.583
623.500	371.346	80.012	19.991	100.516	19.320	73.869
624.000	371.566	80.009	19.989	100.513	19.333	72.924
624.500	371.869	80.004	19.988	100.508	19.344	72.038
625.000	372.082	80.010	19.990	100.500	19.354	71.234
625.500	372.339	80.015	19.992	100.496	19.368	70.180
626.000	372.595	80.010	19.988	100.494	19.377	69.439
626.500	372.839	80.001	19.988	100.488	19.391	68.328
627.000	373.090	80.010	19.988	100.485	19.403	67.384
627.500	373.314	80.007	19.989	100.483	19.414	66.535
628.001	373.613	79.991	19.985	100.482	19.427	65.562
628.500	373.847	80.000	19.990	100.474	19.438	64.670
629.000	374.097	80.013	19.992	100.473	19.451	63.673
629.500	374.348	80.008	19.989	100.471	19.461	62.820
630.000	374.609	80.008	19.990	100.467	19.477	61.593
630.500	374.867	80.013	19.992	100.462	19.489	60.693
631.000	375.091	80.016	19.991	100.464	19.501	59.716
631.500	375.352	80.002	19.988	100.463	19.514	58.723
632.000	375.586	80.003	19.988	100.460	19.528	57.647
632.500	375.858	80.000	19.991	100.457	19.540	56.697
633.000	376.106	79.998	19.987	100.458	19.553	55.696
633.500	376.340	80.000	19.987	100.455	19.564	54.766
634.000	376.605	80.017	19.984	100.446	19.576	53.879
634.500	376.840	80.013	19.991	100.436	19.589	52.831
635.000	377.109	80.006	19.988	100.432	19.602	51.808
635.500	377.343	80.008	19.991	100.421	19.614	50.851
636.000	377.627	80.006	19.988	100.417	19.629	49.729
636.500	377.869	80.002	19.988	100.414	19.639	48.931
637.001	378.107	80.008	19.989	100.417	19.653	47.832
637.500	378.368	80.012	19.990	100.418	19.663	47.063
638.000	378.604	80.015	19.992	100.421	19.676	46.017
638.500	378.868	80.015	19.990	100.421	19.688	45.110
639.000	379.104	80.010	19.987	100.423	19.699	44.235
639.500	379.370	80.014	19.989	100.420	19.710	43.379
640.000	379.615	80.009	19.994	100.417	19.721	42.536
640.500	379.859	80.007	19.990	100.415	19.734	41.486
641.000	380.123	80.005	19.991	100.410	19.744	40.746
641.500	380.354	80.017	19.989	100.407	19.756	39.749
642.000	380.624	80.004	19.991	100.404	19.766	38.970
642.500	380.856	80.012	19.990	100.400	19.777	38.109
643.000	381.132	80.004	19.986	100.395	19.787	37.394
643.500	381.364	80.010	19.983	100.387	19.796	36.635
644.000	381.611	80.005	19.989	100.380	19.808	35.716
644.500	381.884	80.008	19.986	100.376	19.818	34.910
645.000	382.093	80.006	19.986	100.371	19.827	34.227
645.500	382.385	80.009	19.989	100.366	19.837	33.451
646.000	382.613	80.009	19.993	100.368	19.848	32.610
646.500	382.863	80.018	19.994	100.374	19.857	31.892
647.000	383.121	80.011	19.989	100.378	19.866	31.207
647.500	383.368	80.012	19.990	100.378	19.875	30.462
648.000	383.642	80.004	19.990	100.380	19.884	29.772
648.500	383.858	80.014	19.991	100.380	19.893	29.094
649.001	384.121	80.006	19.990	100.379	19.901	28.452
649.500	384.365	80.011	19.994	100.372	19.909	27.798
650.000	384.644	80.016	19.992	100.372	19.919	27.054
650.500	384.871	80.011	19.990	100.370	19.928	26.376
651.000	385.129	80.011	19.989	100.368	19.937	25.630
651.501	385.400	80.007	19.989	100.360	19.944	25.077
652.000	385.612	80.010	19.989	100.359	19.952	24.435
652.500	385.888	79.998	19.990	100.355	19.960	23.864
653.000	386.130	80.013	19.990	100.352	19.966	23.373
653.500	386.397	80.011	19.983	100.347	19.975	22.703
654.000	386.623	80.007	19.987	100.342	19.982	22.096
654.500	386.864	80.003	19.984	100.341	19.991	21.448
655.000	387.135	80.009	19.990	100.336	19.995	21.120
655.500	387.365	80.008	19.989	100.337	20.004	20.391
656.000	387.635	80.012	19.991	100.338	20.010	19.942
656.500	387.883	80.012	19.992	100.343	20.016	19.440
657.000	388.145	80.007	19.987	100.346	20.023	18.920
657.500	388.383	80.010	19.984	100.346	20.029	18.490
658.000	388.626	80.008	19.988	100.341	20.037	17.841
658.500	388.888	80.012	19.989	100.339	20.042	17.445
659.000	389.110	80.008	19.990	100.338	20.048	16.994
659.500	389.390	80.008	19.988	100.337	20.053	16.604
660.000	389.628	80.009	19.988	100.337	20.058	16.190
660.500	389.887	80.016	19.989	100.342	20.064	15.725
661.000	390.128	80.010	19.989	100.343	20.067	15.457
661.500	390.379	80.008	19.987	100.342	20.072	15.068
662.000	390.646	80.008	19.991	100.338	20.077	14.730
662.500	390.866	80.009	19.989	100.341	20.082	14.291
663.000	391.145	80.013	19.986	100.338	20.086	14.003
663.500	391.361	80.009	19.989	100.333	20.090	13.652
664.000	391.623	80.008	19.989	100.327	20.096	13.248
664.500	391.873	80.014	19.990	100.328	20.100	12.900
665.000	392.125	80.012	19.989	100.326	20.105	12.550
665.500	392.383	80.012	19.988	100.328	20.109	12.231
666.000	392.619	80.009	19.987	100.332	20.112	11.967
666.500	392.883	80.007	19.988	100.336	20.115	11.728
667.000	393.113	80.010	19.987	100.336	20.118	11.480
667.500	393.365	80.006	19.984	100.332	20.121	11.293
668.000	393.609	80.009	19.988	100.327	20.123	11.088
668.500	393.862	80.012	19.989	100.323	20.126	10.896
669.000	394.116	80.016	19.988	100.322	20.129	10.635
669.500	394.344	80.012	19.989	100.324	20.132	10.377
670.000	394.622	80.014	19.990	100.325	20.135	10.201
670.500	394.853	80.012	19.990	100.329	20.136	10.093
671.000	395.128	80.008	19.988	100.331	20.140	9.773
671.500	395.360	80.005	19.988	100.331	20.142	9.621
672.000	395.605	80.009	19.988	100.327	20.145	9.395
672.500	395.867	80.004	19.985	100.325	20.146	9.286
673.000	396.094	80.019	19.988	100.317	20.149	9.122
673.500	396.372	80.013	19.988	100.314	20.150	8.968
674.000	396.574	80.009	19.989	100.309	20.152	8.861
674.500	396.851	80.011	19.993	100.308	20.153	8.780
675.000	397.093	80.001	19.981	100.311	20.154	8.713
675.500	397.347	80.010	19.982	100.310	20.156	8.501
676.000	397.611	80.014	19.992	100.302	20.158	8.374
676.500	397.833	80.007	19.987	100.308	20.160	8.250
677.000	398.105	80.003	19.987	100.310	20.160	8.194
677.500	398.320	80.005	19.988	100.311	20.162	8.082
678.000	398.572	80.007	19.987	100.316	20.163	7.989
678.500	398.822	80.012	19.990	100.325	20.164	7.939
679.000	399.084	80.013	19.989	100.320	20.166	7.780
679.500	399.329	80.014	19.989	100.320	20.165	7.828
680.000	399.559	80.002	19.988	100.317	20.167	7.664
680.500	399.833	80.012	19.991	100.315	20.167	7.655
681.000	400.060	80.009	19.987	100.318	20.169	7.530
681.500	400.319	80.008	19.990	100.319	20.169	7.512
682.000	400.570	80.007	19.988	100.321	20.168	7.573
682.500	400.799	80.014	19.992	100.323	20.170	7.467
683.000	401.077	80.008	19.989	100.332	20.171	7.351
683.500	401.289	80.012	19.990	100.332	20.171	7.372
684.000	401.577	80.008	19.989	100.336	20.172	7.269
684.500	401.788	80.009	19.989	100.335	20.172	7.305
685.000	402.053	80.008	19.990	100.338	20.174	7.162
685.500	402.289	80.011	19.991	100.338	20.174	7.137
686.000	402.529	80.007	19.988	100.341	20.173	7.208
686.500	402.793	80.006	19.988	100.339	20.173	7.225
687.000	402.999	80.010	19.991	100.334	20.175	7.050
687.500	403.289	80.004	19.987	100.331	20.175	7.032
688.000	403.503	80.011	19.992	100.324	20.175	7.029
688.500	403.761	80.007	19.988	100.321	20.176	6.957
689.000	404.008	80.015	19.993	100.321	20.176	6.992
689.500	404.272	80.008	19.988	100.322	20.176	6.945
690.000	404.532	80.011	19.990	100.317	20.176	6.948
690.500	404.749	80.016	19.992	100.317	20.175	7.069
691.000	405.008	80.001	19.986	100.320	20.177	6.928
691.500	405.244	80.012	19.990	100.315	20.178	6.842
692.000	405.502	80.008	19.989	100.314	20.177	6.880
692.500	405.746	80.008	19.990	100.318	20.179	6.765
693.000	405.980	80.004	19.986	100.317	20.179	6.714
693.500	406.248	80.010	19.990	100.309	20.177	6.881
694.000	406.473	80.013	19.992	100.310	20.178	6.812
694.500	406.739	80.012	19.992	100.312	20.178	6.826
695.000	406.973	80.007	19.988	100.312	20.179	6.704
695.500	407.239	80.009	19.991	100.314	20.179	6.756
696.000	407.473	80.001	19.987	100.319	20.180	6.671
696.500	407.717	80.008	19.990	100.317	20.179	6.736
697.000	407.985	80.001	19.986	100.319	20.181	6.611
697.500	408.197	80.009	19.991	100.314	20.181	6.611
698.000	408.476	80.004	19.987	100.316	20.180	6.655
698.500	408.706	80.014	19.993	100.314	20.180	6.640
699.000	408.966	80.005	19.988	100.319	20.181	6.624
699.500	409.196	80.012	19.991	100.315	20.181	6.561
700.000	409.446	80.000	19.988	100.320	20.182	6.509
700.500	409.696	80.018	19.991	100.315	20.182	6.535
701.000	409.925	80.011	19.988	100.316	20.182	6.489
701.500	410.213	80.010	19.990	100.312	20.182	6.485
702.000	410.435	80.007	19.986	100.313	20.183	6.426
702.500	410.688	80.006	19.989	100.307	20.183	6.447
703.000	410.928	80.016	19.993	100.310	20.183	6.396
703.500	411.169	80.007	19.989	100.312	20.184	6.390
704.000	411.421	80.010	19.991	100.313	20.185	6.301
704.500	411.668	80.009	19.990	100.314	20.185	6.260
705.000	411.931	80.010	19.994	100.322	20.186	6.218
705.500	412.160	80.008	19.991	100.326	20.186	6.209
706.000	412.437	80.005	19.990	100.322	20.184	6.330
706.500	412.657	80.011	19.994	100.325	20.184	6.316
707.000	412.914	80.008	19.992	100.325	20.184	6.367
707.500	413.162	80.004	19.988	100.325	20.186	6.218
708.000	413.383	80.015	19.994	100.316	20.186	6.224
708.500	413.661	80.013	19.993	100.320	20.187	6.110
709.001	413.883	80.011	19.991	100.320	20.187	6.109
709.500	414.149	80.000	19.986	100.321	20.187	6.131
710.000	414.400	80.008	19.989	100.313	20.187	6.145
710.500	414.639	80.006	19.983	100.315	20.188	6.071
711.000	414.890	80.001	19.989	100.304	20.187	6.114
711.500	415.126	80.008	19.989	100.299	20.189	5.963
712.000	415.396	80.004	19.988	100.296	20.189	5.961
712.500	415.615	80.011	19.991	100.296	20.189	5.997
713.000	415.872	80.010	19.991	100.297	20.188	6.012
713.500	416.134	80.008	19.990	100.307	20.189	5.971
714.000	416.359	80.014	19.991	100.307	20.189	5.957
714.500	416.608	80.014	19.991	100.309	20.190	5.869
715.000	416.849	80.009	19.992	100.311	20.191	5.783
715.500	417.117	80.016	19.991	100.313	20.191	5.779
716.000	417.348	80.015	19.992	100.310	20.192	5.760
716.500	417.607	80.007	19.992	100.314	20.191	5.779
717.000	417.837	80.004	19.987	100.318	20.191	5.835
717.501	418.102	80.008	19.992	100.315	20.192	5.713
718.000	418.344	80.013	19.991	100.314	20.192	5.692
718.500	418.588	80.010	19.989	100.314	20.193	5.682
719.000	418.857	80.010	19.988	100.312	20.194	5.566
719.500	419.081	80.015	19.992	100.302	20.194	5.545
720.000	419.335	80.013	19.993	100.306	20.193	5.616
720.500	419.577	80.011	19.991	100.307	20.193	5.652
721.000	419.833	80.009	19.991	100.311	20.195	5.509
721.500	420.084	80.006	19.988	100.311	20.194	5.602
722.000	420.310	80.005	19.984	100.311	20.195	5.513
722.500	420.586	80.009	19.993	100.307	20.195	5.520
723.000	420.808	80.008	19.990	100.310	20.196	5.381
723.500	421.063	80.005	19.989	100.305	20.196	5.446
724.000	421.299	80.013	19.992	100.304	20.196	5.444
724.500	421.545	80.007	19.989	100.309	20.196	5.411
725.000	421.804	80.012	19.992	100.313	20.196	5.443
725.500	422.045	80.012	19.991	100.308	20.196	5.396
726.000	422.304	80.013	19.993	100.309	20.196	5.438
726.500	422.547	80.005	19.988	100.310	20.197	5.370
727.000	422.808	80.006	19.987	100.306	20.197	5.353
727.500	423.038	80.005	19.989	100.302	20.195	5.492
728.000	423.290	80.014	19.995	100.301	20.197	5.370
728.500	423.543	80.006	19.990	100.303	20.196	5.413
729.000	423.762	80.011	19.992	100.299	20.197	5.357
729.500	424.045	80.011	19.991	100.302	20.196	5.417
730.000	424.274	80.007	19.989	100.304	20.195	5.503
730.500	424.513	80.014	19.992	100.304	20.197	5.336
731.000	424.776	80.012	19.992	100.303	20.197	5.339
731.500	425.006	80.007	19.989	100.306	20.197	5.341
732.000	425.261	80.013	19.992	100.306	20.198	5.280
732.500	425.491	80.015	19.992	100.306	20.198	5.221
733.000	425.754	80.008	19.986	100.309	20.197	5.306
733.500	426.001	80.012	19.991	100.305	20.198	5.269
734.000	426.256	80.005	19.988	100.304	20.198	5.287
734.500	426.496	80.013	19.992	100.303	20.198	5.276
735.000	426.745	80.005	19.991	100.304	20.197	5.334
735.500	427.011	80.010	19.989	100.304	20.199	5.197
736.000	427.204	80.014	19.990	100.308	20.199	5.200
736.500	427.489	80.011	19.991	100.309	20.199	5.143
737.000	427.706	80.010	19.990	100.312	20.199	5.176
737.500	427.992	80.013	19.992	100.309	20.201	5.035
738.000	428.233	80.014	19.993	100.309	20.201	5.061
738.500	428.481	80.010	19.990	100.310	20.200	5.120
739.000	428.730	80.008	19.989	100.309	20.199	5.155
739.500	428.945	80.016	19.994	100.307	20.199	5.167
740.000	429.212	80.011	19.991	100.310	20.201	5.007
740.500	429.438	80.012	19.991	100.310	20.203	4.893
741.000	429.707	80.009	19.991	100.309	20.203	4.902
741.500	429.945	80.009	19.990	100.306	20.202	4.929
742.000	430.194	80.012	19.991	100.305	20.203	4.887
742.500	430.466	80.009	19.990	100.302	20.204	4.827
743.000	430.673	80.010	19.991	100.300	20.203	4.839
743.500	430.958	80.008	19.990	100.297	20.204	4.765
744.000	431.168	80.010	19.991	100.300	20.205	4.716
744.500	431.427	80.010	19.991	100.301	20.204	4.755
745.000	431.679	80.010	19.990	100.301	20.206	4.659
745.500	431.918	80.004	19.990	100.302	20.207	4.591
746.000	432.168	80.011	19.990	100.304	20.206	4.615
746.500	432.397	80.018	19.995	100.304	20.208	4.488
747.000	432.686	80.009	19.991	100.307	20.207	4.549
747.500	432.894	80.012	19.992	100.308	20.207	4.567
748.000	433.164	80.015	19.994	100.309	20.205	4.680
748.500	433.394	80.008	19.988	100.311	20.208	4.501
749.000	433.641	80.003	19.988	100.309	20.207	4.577
749.500	433.904	80.013	19.992	100.303	20.207	4.532
750.000	434.134	80.005	19.988	100.304	20.208	4.469
750.500	434.397	80.016	19.994	100.301	20.209	4.425
751.000	434.632	80.011	19.991	100.302	20.208	4.460
751.500	434.887	79.999	19.986	100.305	20.208	4.443
752.000	435.130	80.006	19.989	100.303	20.208	4.451
752.500	435.380	80.008	19.990	100.301	20.209	4.380
753.000	435.629	80.014	19.993	100.303	20.210	4.327
753.500	435.867	80.005	19.990	100.301	20.209	4.408
754.000	436.123	80.012	19.991	100.301	20.210	4.346
754.500	436.343	80.012	19.992	100.305	20.209	4.418
755.000	436.596	80.005	19.989	100.304	20.209	4.435
755.500	436.851	80.021	19.995	100.302	20.210	4.323
756.000	437.095	80.012	19.992	100.302	20.210	4.301
756.500	437.361	80.005	19.987	100.304	20.211	4.282
757.000	437.574	80.007	19.990	100.301	20.212	4.200
757.500	437.856	80.012	19.991	100.303	20.212	4.171
758.000	438.080	80.011	19.992	100.305	20.211	4.240
758.500	438.342	80.011	19.989	100.305	20.213	4.078
759.000	438.571	80.002	19.988	100.301	20.213	4.126
759.500	438.840	80.006	19.991	100.302	20.213	4.082
760.000	439.088	80.009	19.991	100.300	20.214	4.015
760.500	439.315	80.009	19.990	100.299	20.214	3.984
761.000	439.571	80.014	19.993	100.296	20.215	3.965
761.500	439.807	80.006	19.989	100.302	20.217	3.814
762.000	440.065	80.006	19.989	100.304	20.216	3.864
762.500	440.312	80.013	19.992	100.304	20.217	3.793
763.000	440.546	80.009	19.990	100.305	20.216	3.870
763.500	440.803	80.012	19.993	100.304	20.218	3.723
764.000	441.046	80.006	19.988	100.301	20.217	3.768
764.500	441.310	80.008	19.991	100.300	20.218	3.723
765.000	441.526	80.007	19.990	100.300	20.217	3.740
765.500	441.786	80.012	19.992	100.299	20.219	3.652
766.000	442.034	80.009	19.991	100.301	20.219	3.626
766.500	442.277	80.009	19.992	100.301	20.219	3.587
767.001	442.533	80.010	19.990	100.304	20.220	3.576
767.500	442.743	80.010	19.991	100.305	20.220	3.553
768.000	443.036	80.010	19.990	100.307	20.220	3.550
768.500	443.245	80.009	19.991	100.306	20.221	3.437
769.000	443.511	80.006	19.989	100.305	20.221	3.481
769.500	443.748	80.009	19.990	100.303	20.222	3.364
770.000	443.995	80.012	19.992	100.303	20.222	3.413
770.500	444.259	80.010	19.990	100.304	20.222	3.415
771.000	444.479	80.009	19.988	100.303	20.222	3.423
771.500	444.767	80.009	19.989	100.301	20.222	3.381
772.000	444.980	80.006	19.990	100.302	20.222	3.350
772.500	445.247	80.006	19.989	100.302	20.222	3.377
773.000	445.469	80.009	19.991	100.299	20.222	3.375
773.500	445.721	80.001	19.987	100.298	20.223	3.297
774.000	445.985	80.014	19.992	100.297	20.223	3.285
774.500	446.206	80.008	19.989	100.297	20.226	3.111
775.000	446.497	80.007	19.988	100.296	20.225	3.140
775.500	446.687	80.005	19.987	100.295	20.224	3.201
776.000	446.981	80.010	19.990	100.293	20.224	3.249
776.500	447.192	80.018	19.993	100.293	20.226	3.094
777.000	447.444	80.007	19.989	100.295	20.226	3.107
777.500	447.699	80.012	19.990	100.296	20.227	2.987
778.000	447.923	80.009	19.989	100.298	20.226	3.091
778.500	448.195	80.012	19.991	100.301	20.228	2.930
779.000	448.427	80.008	19.990	100.306	20.228	2.918
779.500	448.690	80.005	19.989	100.303	20.228	2.907
780.000	448.943	80.013	19.991	100.304	20.229	2.862
780.500	449.173	80.009	19.990	100.305	20.228	2.916
781.000	449.431	80.012	19.990	100.304	20.228	2.954
781.500	449.649	80.012	19.992	100.302	20.228	2.944
782.000	449.918	80.012	19.992	100.304	20.228	2.942
782.500	450.142	80.011	19.992	100.305	20.229	2.804
783.000	450.402	80.011	19.988	100.305	20.231	2.710
783.500	450.642	80.008	19.989	100.304	20.230	2.767
784.000	450.893	80.013	19.991	100.303	20.229	2.855
784.500	451.151	80.009	19.991	100.302	20.229	2.842
785.000	451.373	80.009	19.990	100.301	20.230	2.784
785.500	451.645	80.010	19.990	100.300	20.230	2.767
786.000	451.850	80.007	19.989	100.299	20.229	2.834
786.500	452.126	80.015	19.993	100.294	20.230	2.737
787.000	452.372	80.010	19.991	100.295	20.231	2.674
787.500	452.617	80.007	19.989	100.294	20.231	2.646
788.000	452.870	80.009	19.990	100.293	20.231	2.715
788.500	453.090	80.012	19.990	100.294	20.232	2.643
789.000	453.357	80.009	19.988	100.299	20.233	2.537
789.500	453.598	80.014	19.991	100.294	20.233	2.518
790.000	453.850	80.007	19.992	100.293	20.232	2.642
790.500	454.095	80.008	19.987	100.297	20.232	2.630
791.000	454.345	80.011	19.992	100.294	20.234	2.443
791.500	454.590	80.005	19.993	100.297	20.233	2.505
792.000	454.819	80.009	19.990	100.302	20.233	2.530
792.500	455.088	80.007	19.990	100.302	20.233	2.506
793.000	455.318	80.008	19.990	100.301	20.233	2.523
793.500	455.576	80.009	19.989	100.305	20.234	2.415
794.000	455.811	80.005	19.989	100.303	20.234	2.424
794.500	456.064	80.011	19.990	100.300	20.233	2.494
795.000	456.305	80.007	19.990	100.300	20.232	2.635
795.500	456.529	80.010	19.990	100.299	20.233	2.531
796.000	456.817	80.011	19.993	100.298	20.233	2.508
796.500	457.035	80.007	19.989	100.299	20.232	2.590
797.000	457.291	80.008	19.991	100.298	20.233	2.504
797.500	457.521	80.009	19.990	100.300	20.234	2.452
798.000	457.768	80.012	19.992	100.299	20.233	2.504
798.500	458.034	80.014	19.993	100.299	20.234	2.460
799.000	458.270	80.009	19.990	100.301	20.233	2.521
799.501	458.532	80.010	19.990	100.304	20.235	2.405
800.000	458.767	80.007	19.989	100.303	20.234	2.460
800.500	459.011	80.016	19.994	100.303	20.235	2.376
801.000	459.250	80.014	19.992	100.306	20.234	2.410
801.500	459.486	80.010	19.991	100.305	20.236	2.304
802.000	459.745	80.014	19.994	100.306	20.236	2.263
802.500	459.980	80.011	19.988	100.309	20.235	2.372
803.000	460.254	80.010	19.988	100.308	20.236	2.325
803.500	460.469	80.014	19.992	100.302	20.237	2.203
804.000	460.725	80.002	19.989	100.304	20.237	2.188
804.500	460.986	80.008	19.989	100.300	20.236	2.287
805.000	461.228	80.012	19.991	100.293	20.238	2.171
805.500	461.479	80.008	19.989	100.295	20.237	2.191
806.000	461.705	80.006	19.988	100.295	20.238	2.159
806.500	461.971	80.005	19.989	100.290	20.238	2.158
807.000	462.201	80.010	19.992	100.287	20.238	2.151
807.500	462.469	80.009	19.990	100.286	20.237	2.221
808.000	462.714	80.013	19.990	100.280	20.237	2.201
808.500	462.941	80.012	19.992	100.279	20.237	2.239
809.000	463.187	80.014	19.992	100.278	20.237	2.190
809.500	463.403	80.009	19.991	100.280	20.238	2.112
810.000	463.701	80.006	19.989	100.282	20.237	2.251
810.500	463.933	80.008	19.990	100.284	20.238	2.173
811.000	464.171	80.010	19.988	100.285	20.237	2.183
811.500	464.426	80.011	19.992	100.284	20.239	2.068
812.000	464.660	80.010	19.988	100.285	20.237	2.212
812.500	464.930	80.009	19.990	100.281	20.237	2.227
813.000	465.140	80.005	19.991	100.283	20.238	2.101
813.500	465.422	80.013	19.990	100.284	20.239	2.089
814.000	465.644	80.010	19.991	100.286	20.239	2.044
814.500	465.905	80.011	19.990	100.283	20.239	2.089
815.001	466.142	80.010	19.990	100.287	20.240	2.017
815.500	466.378	80.005	19.988	100.290	20.240	2.019
816.000	466.648	80.015	19.992	100.290	20.239	2.048
816.500	466.859	80.012	19.991	100.294	20.241	1.901
817.000	467.133	80.006	19.987	100.302	20.242	1.834
817.500	467.374	80.005	19.988	100.300	20.241	1.899
818.000	467.616	80.008	19.991	100.296	20.242	1.803
818.500	467.867	80.016	19.992	100.299	20.242	1.849
819.000	468.112	80.009	19.989	100.296	20.242	1.827
819.500	468.347	80.009	19.990	100.294	20.242	1.828
820.000	468.581	80.007	19.992	100.297	20.242	1.862
820.500	468.853	80.006	19.990	100.301	20.242	1.811
821.000	469.082	80.002	19.985	100.302	20.243	1.775
821.500	469.347	80.010	19.988	100.297	20.243	1.728
822.000	469.590	80.010	19.990	100.295	20.243	1.753
822.500	469.830	80.014	19.988	100.296	20.243	1.737
823.000	470.085	80.010	19.988	100.294	20.244	1.700
823.500	470.307	80.011	19.988	100.290	20.242	1.786
824.000	470.573	80.008	19.987	100.294	20.243	1.769
824.500	470.817	80.013	19.990	100.291	20.245	1.593
825.000	471.062	80.019	19.988	100.287	20.244	1.652
825.500	471.302	80.012	19.990	100.280	20.245	1.628
826.000	471.554	80.006	19.991	100.276	20.246	1.548
826.500	471.799	80.014	19.988	100.273	20.244	1.690
827.000	472.032	80.018	19.993	100.270	20.245	1.623
827.500	472.303	80.016	19.988	100.269	20.245	1.561
828.001	472.543	80.005	19.986	100.268	20.245	1.559
828.500	472.799	80.012	19.988	100.263	20.244	1.656
829.000	473.029	80.012	19.990	100.260	20.246	1.542
829.500	473.259	80.019	19.993	100.261	20.245	1.570
830.000	473.519	80.011	19.991	100.263	20.247	1.443
830.501	473.755	80.006	19.986	100.266	20.245	1.585
831.000	474.025	80.010	19.987	100.270	20.246	1.504
831.500	474.247	80.009	19.989	100.268	20.247	1.401
832.000	474.503	80.012	19.990	100.267	20.247	1.397
832.500	474.749	80.010	19.989	100.264	20.247	1.463
833.000	475.005	80.010	19.990	100.262	20.246	1.509
833.500	475.242	80.003	19.985	100.265	20.246	1.529
834.000	475.465	80.013	19.991	100.265	20.245	1.557
834.500	475.757	80.013	19.990	100.272	20.248	1.375
835.000	475.974	80.011	19.990	100.280	20.247	1.422
835.500	476.234	80.019	19.992	100.286	20.248	1.341
836.000	476.481	80.005	19.989	100.288	20.247	1.424
836.500	476.699	80.011	19.990	100.292	20.249	1.303
837.000	476.971	80.012	19.988	100.288	20.247	1.438
837.500	477.189	80.005	19.986	100.282	20.247	1.418
838.000	477.470	80.010	19.989	100.277	20.248	1.375
838.500	477.690	80.011	19.991	100.276	20.247	1.454
839.000	477.951	80.005	19.988	100.279	20.249	1.283
839.500	478.199	80.006	19.987	100.276	20.249	1.315
840.000	478.431	80.015	19.991	100.273	20.248	1.348
840.500	478.696	80.001	19.988	100.272	20.249	1.251
841.000	478.941	80.012	19.990	100.267	20.249	1.263
841.500	479.190	80.012	19.990	100.263	20.248	1.394
842.000	479.414	80.008	19.980	100.263	20.248	1.375
842.500	479.668	80.016	19.991	100.256	20.249	1.277
843.000	479.928	80.009	19.992	100.257	20.248	1.373
843.500	480.161	79.997	19.988	100.262	20.247	1.417
844.000	480.415	80.009	19.991	100.261	20.248	1.379
844.500	480.637	80.002	19.987	100.264	20.249	1.297
845.000	480.918	80.017	19.995	100.273	20.249	1.253
845.500	481.143	80.005	19.989	100.277	20.249	1.270
846.000	481.393	80.017	19.991	100.273	20.250	1.190
846.500	481.648	80.009	19.990	100.280	20.248	1.329
847.000	481.893	80.009	19.985	100.282	20.250	1.188
847.500	482.137	80.009	19.989	100.282	20.250	1.222
848.000	482.361	80.006	19.987	100.275	20.250	1.187
848.500	482.648	80.005	19.988	100.275	20.251	1.126
849.000	482.868	80.011	19.987	100.266	20.250	1.210
849.500	483.122	80.015	19.991	100.260	20.250	1.226
850.000	483.359	80.013	19.994	100.259	20.251	1.131
850.500	483.612	80.008	19.990	100.266	20.253	0.992
851.000	483.873	80.011	19.989	100.266	20.252	1.070
851.500	484.088	80.005	19.989	100.269	20.251	1.093
852.000	484.362	80.013	19.991	100.274	20.251	1.094
852.500	484.593	80.010	19.992	100.275	20.253	0.974
853.000	484.847	80.004	19.986	100.271	20.253	0.952
853.500	485.096	80.010	19.991	100.267	20.253	0.946
854.000	485.339	80.008	19.989	100.268	20.253	0.947
854.500	485.604	80.010	19.989	100.265	20.253	0.955
855.000	485.834	80.014	19.992	100.269	20.254	0.887
855.500	486.105	80.011	19.990	100.271	20.255	0.809
856.000	486.320	80.010	19.991	100.278	20.253	0.973
856.500	486.557	80.011	19.991	100.279	20.254	0.921
857.000	486.807	80.011	19.991	100.283	20.254	0.905
857.500	487.069	80.011	19.991	100.285	20.253	0.988
858.000	487.342	80.009	19.992	100.286	20.254	0.917
858.500	487.554	80.008	19.989	100.287	20.255	0.792
859.000	487.822	80.008	19.989	100.283	20.253	0.955
859.500	488.071	80.003	19.989	100.282	20.253	0.929
860.000	488.303	80.003	19.988	100.279	20.255	0.793
860.500	488.544	80.007	19.988	100.274	20.254	0.923
861.000	488.785	80.014	19.989	100.269	20.254	0.849
861.500	489.039	80.007	19.990	100.274	20.255	0.817
862.000	489.266	80.005	19.988	100.275	20.255	0.813
862.500	489.539	80.005	19.988	100.274	20.255	0.815
863.000	489.769	80.008	19.990	100.273	20.254	0.898
863.500	490.045	80.011	19.990	100.276	20.255	0.780
864.000	490.271	80.006	19.990	100.272	20.255	0.798
864.500	490.523	80.008	19.989	100.277	20.255	0.772
865.000	490.779	80.009	19.990	100.277	20.256	0.737
865.500	491.008	80.008	19.991	100.280	20.255	0.774
866.000	491.282	80.010	19.990	100.281	20.255	0.779
866.500	491.522	80.011	19.992	100.280	20.256	0.708
867.000	491.758	80.013	19.992	100.276	20.258	0.574
867.500	492.002	80.003	19.987	100.277	20.257	0.671
868.000	492.250	80.010	19.991	100.275	20.257	0.664
868.500	492.511	80.013	19.991	100.273	20.257	0.654
869.000	492.723	80.008	19.993	100.274	20.257	0.692
869.500	493.016	80.014	19.993	100.274	20.257	0.649
870.000	493.236	80.010	19.991	100.277	20.257	0.654
870.500	493.497	80.013	19.991	100.282	20.258	0.614
871.000	493.739	80.008	19.989	100.284	20.256	0.699
871.500	493.959	80.010	19.990	100.286	20.258	0.563
872.000	494.240	80.011	19.990	100.284	20.258	0.573
872.500	494.453	80.009	19.991	100.284	20.257	0.618
873.000	494.743	80.009	19.990	100.285	20.259	0.534
873.500	494.981	80.004	19.989	100.285	20.258	0.593
874.000	495.221	80.009	19.989	100.280	20.258	0.599
874.500	495.467	80.015	19.992	100.278	20.258	0.603
875.000	495.707	80.010	19.993	100.274	20.258	0.586
875.500	495.961	80.006	19.989	100.272	20.257	0.626
876.000	496.191	80.012	19.989	100.271	20.258	0.578
876.500	496.474	80.011	19.989	100.271	20.256	0.694
877.000	496.703	80.007	19.993	100.270	20.256	0.703
877.500	496.959	80.010	19.988	100.270	20.258	0.602
878.000	497.206	80.017	19.993	100.264	20.257	0.631
878.500	497.459	80.008	19.988	100.264	20.257	0.618
879.000	497.698	80.006	19.991	100.265	20.257	0.616
879.500	497.929	80.012	19.989	100.268	20.258	0.556
880.000	498.190	80.007	19.992	100.267	20.259	0.468
880.500	498.414	80.007	19.989	100.271	20.259	0.501
881.000	498.700	80.007	19.987	100.271	20.260	0.431
881.500	498.939	79.999	19.989	100.270	20.258	0.603
882.000	499.171	80.009	19.989	100.269	20.258	0.568
882.500	499.427	80.003	19.990	100.268	20.259	0.473
883.000	499.674	80.008	19.992	100.272	20.260	0.425
883.500	499.945	80.013	19.991	100.275	20.260	0.393
884.000	500.162	80.011	19.991	100.277	20.260	0.425
884.500	500.415	80.008	19.986	100.280	20.260	0.398
885.000	500.672	80.013	19.991	100.283	20.259	0.525
885.500	500.924	80.010	19.993	100.284	20.260	0.387
886.000	501.184	80.011	19.990	100.288	20.260	0.457
886.500	501.410	80.015	19.991	100.285	20.261	0.361
887.000	501.669	80.002	19.988	100.283	20.261	0.363
887.500	501.905	80.009	19.992	100.282	20.263	0.188
888.000	502.168	80.011	19.990	100.281	20.263	0.208
888.500	502.406	80.010	19.990	100.277	20.262	0.267
889.000	502.659	80.012	19.991	100.279	20.263	0.211
889.500	502.916	80.011	19.990	100.283	20.264	0.134
890.000	503.148	80.008	19.988	100.280	20.263	0.218
890.500	503.432	80.009	19.990	100.277	20.264	0.134
891.000	503.664	80.003	19.989	100.274	20.263	0.168
891.500	503.902	80.006	19.987	100.275	20.262	0.230
892.000	504.142	80.010	19.991	100.270	20.262	0.288
892.500	504.384	80.013	19.990	100.271	20.263	0.194
893.000	504.646	80.012	19.990	100.271	20.263	0.211
893.500	504.871	80.008	19.991	100.273	20.263	0.187
894.000	505.165	80.011	19.991	100.273	20.262	0.266
894.500	505.369	80.012	19.990	100.274	20.262	0.239
895.000	505.644	80.008	19.991	100.273	20.262	0.245
895.500	505.868	80.011	19.991	100.274	20.263	0.177
896.000	506.126	80.009	19.988	100.276	20.263	0.175
896.500	506.394	80.000	19.983	100.274	20.263	0.188
897.000	506.606	80.013	19.993	100.271	20.263	0.189
897.500	506.892	80.006	19.987	100.271	20.264	0.100
898.000	507.103	80.004	19.986	100.267	20.263	0.155
898.500	507.380	80.008	19.992	100.260	20.264	0.142
899.000	507.620	80.009	19.985	100.262	20.264	0.105
899.500	507.870	80.005	19.990	100.260	20.263	0.155
900.000	508.109	80.009	19.990	100.261	20.264	0.104
900.500	508.335	80.010	19.989	100.262	20.263	0.154
901.000	508.629	80.011	19.992	100.265	20.264	0.109
901.500	508.841	80.009	19.983	100.266	20.265	0.034
902.000	509.110	80.006	19.989	100.265	20.262	0.230
902.500	509.350	80.008	19.988	100.265	20.262	0.233
903.000	509.592	80.011	19.989	100.265	20.263	0.158
903.500	509.846	80.013	19.988	100.264	20.264	0.137
904.000	510.073	80.011	19.984	100.261	20.265	0.059
904.500	510.348	80.005	19.987	100.262	20.265	-0.009
905.000	510.582	80.009	19.987	100.260	20.264	0.119
905.500	510.830	80.008	19.989	100.260	20.265	-0.004
906.001	511.077	80.007	19.989	100.261	20.265	-0.004
906.501	511.320	80.009	19.989	100.260	20.265	0.032
907.001	511.586	80.011	19.989	100.263	20.265	-0.008
907.500	511.827	80.005	19.988	100.265	20.265	0.053
908.000	512.080	80.015	19.991	100.264	20.263	0.155
908.500	512.301	80.018	19.993	100.267	20.265	0.012
909.000	512.579	80.008	19.989	100.276	20.265	0.028
909.500	512.822	80.009	19.990	100.277	20.264	0.146
910.000	513.069	80.004	19.990	100.278	20.265	0.047
910.500	513.319	80.008	19.988	100.280	20.265	-0.009
911.000	513.539	80.004	19.988	100.276	20.264	0.080
911.500	513.802	80.010	19.988	100.268	20.265	0.055
912.000	514.045	80.010	19.988	100.266	20.264	0.083
912.500	514.295	80.013	19.992	100.264	20.265	0.045
913.000	514.522	80.008	19.992	100.265	20.266	-0.086
913.500	514.755	80.014	19.991	100.269	20.266	-0.058
914.000	515.009	80.009	19.988	100.270	20.265	0.059
914.500	515.227	80.003	19.990	100.270	20.265	0.026
915.000	515.512	80.001	19.990	100.271	20.265	0.050
915.501	515.752	80.008	19.991	100.269	20.264	0.125
916.000	515.993	80.000	19.986	100.268	20.265	0.020
916.500	516.229	80.015	19.988	100.266	20.266	-0.068
917.000	516.485	80.012	19.985	100.268	20.265	0.064
917.500	516.732	80.013	19.990	100.267	20.266	-0.055
918.000	516.962	80.011	19.989	100.268	20.266	-0.026
918.500	517.249	80.007	19.988	100.267	20.266	-0.014
919.000	517.475	80.016	19.993	100.268	20.266	-0.061
919.500	517.727	80.009	19.993	100.272	20.265	-0.003
920.000	517.973	80.003	19.989	100.277	20.267	-0.116
920.500	518.220	80.011	19.988	100.277	20.267	-0.136
921.000	518.477	80.011	19.988	100.277	20.267	-0.151
921.500	518.714	80.016	19.984	100.280	20.267	-0.089
922.000	518.981	80.001	19.988	100.273	20.266	-0.060
922.500	519.208	80.013	19.991	100.269	20.266	-0.013
923.000	519.452	80.008	19.988	100.271	20.266	-0.017
923.500	519.715	80.020	19.986	100.271	20.266	-0.069
924.000	519.951	80.008	19.992	100.266	20.267	-0.125
924.500	520.204	80.009	19.988	100.271	20.269	-0.300
925.000	520.433	80.008	19.990	100.269	20.266	-0.083
925.500	520.707	80.007	19.993	100.269	20.268	-0.210
926.000	520.942	80.004	19.988	100.277	20.268	-0.224
926.500	521.203	80.008	19.989	100.283	20.267	-0.154
927.000	521.464	80.015	19.990	100.280	20.269	-0.299
927.500	521.700	80.006	19.992	100.282	20.268	-0.171
928.000	521.938	80.001	19.982	100.282	20.268	-0.215
928.500	522.175	80.010	19.990	100.269	20.267	-0.099
929.000	522.455	80.004	19.991	100.268	20.268	-0.243
929.500	522.687	80.004	19.988	100.270	20.268	-0.237
930.000	522.947	80.006	19.991	100.269	20.267	-0.150
930.500	523.175	80.019	19.992	100.268	20.268	-0.216
931.000	523.438	80.011	19.985	100.277	20.270	-0.394
931.500	523.680	80.005	19.990	100.272	20.269	-0.267
932.000	523.907	80.002	19.987	100.270	20.268	-0.195
932.500	524.192	80.009	19.988	100.268	20.269	-0.316
933.000	524.412	80.014	19.985	100.266	20.268	-0.183
933.500	524.654	80.008	19.990	100.254	20.268	-0.228
934.000	524.918	80.016	19.992	100.251	20.269	-0.283
934.500	525.169	80.004	19.988	100.250	20.267	-0.145
935.000	525.405	80.011	19.989	100.251	20.268	-0.182
935.500	525.645	79.999	19.987	100.255	20.267	-0.114
936.000	525.919	80.013	19.990	100.261	20.269	-0.273
936.500	526.163	80.007	19.986	100.269	20.269	-0.304
937.000	526.411	80.010	19.987	100.270	20.267	-0.157
937.500	526.663	80.002	19.989	100.270	20.267	-0.147
938.000	526.895	80.012	19.991	100.266	20.268	-0.192
938.500	527.159	80.015	19.991	100.270	20.268	-0.184
939.000	527.384	80.011	19.993	100.269	20.269	-0.317
939.500	527.660	80.010	19.989	100.271	20.269	-0.280
940.000	527.887	80.016	19.994	100.270	20.269	-0.279
940.500	528.167	80.006	19.989	100.272	20.268	-0.238
941.000	528.397	80.013	19.996	100.270	20.270	-0.334
941.500	528.629	80.011	19.990	100.272	20.270	-0.347
942.000	528.890	80.013	19.987	100.268	20.270	-0.373
942.500	529.122	80.011	19.990	100.268	20.268	-0.235
943.000	529.411	80.007	19.988	100.267	20.268	-0.228
943.500	529.626	80.004	19.988	100.265	20.270	-0.372
944.000	529.885	80.020	19.993	100.260	20.269	-0.316
944.500	530.123	80.014	19.986	100.262	20.271	-0.438
945.000	530.352	80.008	19.990	100.262	20.270	-0.324
945.500	530.638	80.009	19.991	100.261	20.270	-0.362
946.000	530.862	80.015	19.992	100.264	20.269	-0.295
946.500	531.122	80.010	19.989	100.265	20.272	-0.479
947.000	531.361	80.010	19.989	100.263	20.270	-0.394
947.500	531.614	80.010	19.992	100.264	20.271	-0.407
948.000	531.851	80.008	19.992	100.265	20.270	-0.365
948.500	532.116	80.013	19.993	100.263	20.271	-0.444
949.000	532.359	80.013	19.990	100.265	20.271	-0.442
949.500	532.593	80.011	19.988	100.266	20.271	-0.442
950.000	532.864	80.015	19.992	100.266	20.270	-0.394
950.500	533.100	80.004	19.990	100.267	20.271	-0.406
951.000	533.347	80.007	19.990	100.268	20.272	-0.524
951.500	533.600	80.006	19.987	100.267	20.272	-0.499
952.000	533.814	80.008	19.985	100.263	20.272	-0.536
952.500	534.106	80.010	19.987	100.261	20.273	-0.567
953.000	534.338	80.010	19.990	100.255	20.273	-0.578
953.500	534.603	80.010	19.989	100.252	20.273	-0.601
954.000	534.836	80.007	19.990	100.251	20.272	-0.529
954.500	535.093	80.018	19.991	100.253	20.274	-0.661
955.000	535.345	80.009	19.987	100.256	20.273	-0.617
955.500	535.578	80.018	19.993	100.257	20.273	-0.630
956.000	535.844	80.019	19.994	100.259	20.273	-0.629
956.500	536.058	80.009	19.988	100.265	20.276	-0.843
957.000	536.341	80.013	19.988	100.265	20.275	-0.714
957.500	536.560	80.018	19.996	100.264	20.273	-0.583
958.000	536.828	80.007	19.988	100.271	20.275	-0.722
958.500	537.062	80.013	19.991	100.266	20.274	-0.669
959.000	537.295	80.014	19.989	100.263	20.275	-0.766
959.500	537.564	80.011	19.993	100.261	20.276	-0.837
960.000	537.798	80.008	19.993	100.266	20.273	-0.611
960.500	538.077	80.009	19.993	100.262	20.273	-0.631
961.000	538.293	80.009	19.991	100.267	20.274	-0.649
961.500	538.557	80.008	19.991	100.266	20.275	-0.761
962.000	538.806	80.015	19.990	100.269	20.274	-0.660
962.500	539.033	80.004	19.985	100.266	20.275	-0.728
963.000	539.298	80.012	19.993	100.262	20.272	-0.543
963.500	539.514	80.009	19.992	100.262	20.273	-0.556
964.000	539.795	80.021	19.989	100.261	20.273	-0.598
964.500	540.013	80.018	19.991	100.257	20.272	-0.539
965.000	540.288	80.010	19.995	100.257	20.272	-0.549
965.500	540.521	80.008	19.988	100.262	20.272	-0.548
966.000	540.770	80.012	19.993	100.257	20.271	-0.435
966.500	541.030	80.007	19.989	100.254	20.270	-0.380
967.000	541.260	80.013	19.991	100.255	20.272	-0.483
967.500	541.529	80.010	19.988	100.249	20.272	-0.510
968.000	541.755	80.011	19.994	100.240	20.271	-0.432
968.500	541.998	80.010	19.992	100.244	20.270	-0.397
969.000	542.241	80.018	19.995	100.243	20.269	-0.262
969.500	542.493	80.010	19.993	100.241	20.269	-0.302
970.000	542.752	80.010	19.989	100.242	20.269	-0.304
970.500	542.988	80.004	19.988	100.241	20.267	-0.131
971.000	543.244	80.017	19.995	100.232	20.268	-0.222
971.500	543.471	80.008	19.990	100.231	20.269	-0.313
972.000	543.734	80.008	19.987	100.226	20.269	-0.267
972.500	543.970	80.008	19.990	100.225	20.269	-0.281
973.000	544.232	80.003	19.992	100.227	20.269	-0.277
973.500	544.491	80.007	19.986	100.233	20.268	-0.238
974.000	544.710	80.009	19.993	100.230	20.268	-0.224
974.500	544.990	80.010	19.989	100.236	20.268	-0.226
975.000	545.208	80.012	19.990	100.236	20.268	-0.185
975.500	545.456	80.009	19.992	100.236	20.268	-0.237
976.000	545.708	80.013	19.991	100.238	20.268	-0.172
976.500	545.943	80.004	19.987	100.244	20.269	-0.280
977.000	546.201	80.020	19.982	100.244	20.269	-0.321
977.500	546.438	80.004	19.995	100.242	20.269	-0.281
978.000	546.706	80.006	19.993	100.250	20.270	-0.334
978.500	546.924	80.017	19.991	100.251	20.268	-0.224
979.000	547.187	80.007	19.992	100.253	20.269	-0.317
979.500	547.423	80.009	19.992	100.256	20.269	-0.311
980.000	547.677	80.013	19.992	100.265	20.271	-0.455
980.500	547.923	80.017	19.988	100.264	20.271	-0.410
981.000	548.139	80.003	19.994	100.262	20.270	-0.351
981.501	548.423	80.010	19.992	100.267	20.272	-0.503
982.000	548.646	80.010	19.987	100.264	20.271	-0.403
982.500	548.921	80.015	19.991	100.261	20.271	-0.446
983.000	549.154	80.009	19.988	100.258	20.271	-0.465
983.500	549.403	80.006	19.992	100.258	20.272	-0.482
984.000	549.655	80.009	19.993	100.254	20.272	-0.502
984.500	549.874	80.012	19.989	100.259	20.271	-0.464
985.000	550.144	80.008	19.989	100.262	20.271	-0.466
985.500	550.370	80.009	19.990	100.262	20.272	-0.541
986.000	550.634	80.005	19.984	100.264	20.273	-0.584
986.500	550.882	80.008	19.987	100.259	20.272	-0.543
987.000	551.128	80.010	19.989	100.254	20.274	-0.645
987.500	551.385	80.010	19.988	100.254	20.274	-0.666
988.000	551.608	80.014	19.989	100.253	20.274	-0.697
988.500	551.876	80.011	19.992	100.251	20.273	-0.574
989.000	552.100	80.012	19.988	100.256	20.271	-0.427
989.500	552.373	80.010	19.994	100.256	20.273	-0.600
990.000	552.592	80.008	19.991	100.259	20.273	-0.614
990.500	552.850	80.015	19.990	100.260	20.273	-0.602
991.000	553.106	80.012	19.992	100.261	20.274	-0.645
991.500	553.330	80.017	19.989	100.262	20.275	-0.719
992.000	553.615	80.007	19.989	100.264	20.274	-0.651
992.500	553.825	80.008	19.991	100.260	20.273	-0.601
993.000	554.084	80.016	19.987	100.263	20.273	-0.586
993.500	554.319	80.001	19.986	100.263	20.273	-0.623
994.000	554.574	80.018	19.992	100.258	20.273	-0.572
994.500	554.823	80.013	19.992	100.260	20.274	-0.658
995.000	555.054	80.012	19.993	100.263	20.274	-0.703
995.500	555.338	80.010	19.990	100.264	20.275	-0.788
996.000	555.554	80.018	19.994	100.267	20.276	-0.792
996.500	555.825	80.012	19.986	100.273	20.275	-0.743
997.000	556.043	80.016	19.995	100.267	20.276	-0.842
997.500	556.294	80.011	19.987	100.272	20.276	-0.813
998.000	556.568	80.014	19.988	100.265	20.276	-0.836
998.501	556.801	80.014	19.991	100.264	20.275	-0.758
999.000	557.089	80.005	19.986	100.261	20.277	-0.889
999.500	557.302	80.013	19.990	100.262	20.278	-0.964
1000.000	557.539	80.004	19.984	100.259	20.277	-0.908
1000.500	557.809	80.009	19.992	100.258	20.276	-0.839
1001.000	558.049	79.997	19.986	100.261	20.276	-0.812
1001.500	558.286	80.016	19.992	100.259	20.276	-0.856
1002.000	558.515	80.010	19.988	100.261	20.277	-0.884
1002.500	558.785	79.999	19.993	100.257	20.278	-0.969
1003.000	559.022	80.021	19.992	100.262	20.277	-0.886
1003.500	559.290	80.009	19.989	100.260	20.277	-0.910
1004.000	559.520	80.008	19.990	100.261	20.278	-0.955
1004.500	559.768	80.005	19.982	100.261	20.276	-0.793
1005.000	560.039	80.000	19.987	100.257	20.276	-0.818
1005.500	560.252	80.020	19.991	100.254	20.277	-0.889
1006.000	560.544	80.009	19.987	100.254	20.277	-0.872
1006.500	560.755	80.010	19.986	100.255	20.277	-0.935
1007.000	561.015	80.008	19.989	100.251	20.277	-0.938
1007.500	561.264	80.013	19.991	100.255	20.276	-0.858
1008.000	561.499	80.005	19.990	100.257	20.277	-0.934
1008.500	561.763	80.009	19.992	100.257	20.279	-1.029
1009.000	561.990	80.008	19.988	100.260	20.279	-1.033
1009.500	562.280	80.011	19.990	100.262	20.279	-1.061
1010.000	562.498	80.009	19.990	100.265	20.279	-1.067
1010.500	562.736	80.009	19.982	100.263	20.278	-1.014
1011.000	562.985	80.011	19.995	100.258	20.279	-1.056
1011.500	563.235	80.012	19.990	100.259	20.278	-1.015
1012.000	563.506	80.004	19.988	100.261	20.278	-0.958
1012.500	563.734	80.006	19.988	100.260	20.279	-1.029
1013.000	563.987	80.016	19.994	100.261	20.279	-1.074
1013.500	564.213	80.005	19.991	100.269	20.279	-1.070
1014.000	564.487	80.005	19.989	100.267	20.279	-1.026
1014.501	564.731	80.008	19.991	100.265	20.278	-1.001
1015.000	564.963	80.011	19.986	100.265	20.279	-1.067
1015.500	565.222	80.002	19.987	100.260	20.279	-1.075
1016.000	565.436	80.015	19.987	100.252	20.280	-1.127
1016.500	565.726	80.007	19.992	100.244	20.279	-1.077
1017.000	565.956	80.009	19.989	100.245	20.279	-1.073
1017.500	566.214	80.014	19.989	100.240	20.280	-1.160
1018.000	566.449	80.001	19.990	100.243	20.281	-1.234
1018.500	566.698	80.006	19.988	100.243	20.281	-1.254
1019.000	566.947	80.004	19.989	100.247	20.280	-1.110
1019.500	567.169	80.005	19.990	100.247	20.280	-1.115
1020.000	567.456	80.010	19.992	100.254	20.280	-1.117
1020.500	567.680	80.010	19.991	100.260	20.279	-1.057
1021.000	567.946	79.998	19.988	100.264	20.280	-1.105
1021.500	568.191	80.003	19.991	100.266	20.279	-1.059
1022.000	568.425	80.008	19.990	100.267	20.278	-1.013
1022.500	568.679	80.015	19.991	100.264	20.280	-1.106
1023.000	568.928	80.006	19.984	100.258	20.280	-1.147
1023.500	569.183	80.009	19.987	100.252	20.281	-1.185
1024.001	569.421	80.007	19.991	100.252	20.279	-1.035
1024.500	569.667	80.007	19.989	100.251	20.279	-1.048
1025.000	569.912	80.008	19.992	100.251	20.280	-1.109
1025.500	570.157	80.012	19.990	100.256	20.281	-1.209
1026.000	570.402	80.007	19.991	100.260	20.281	-1.192
1026.500	570.639	80.005	19.985	100.260	20.281	-1.181
1027.000	570.912	80.007	19.991	100.253	20.281	-1.209
1027.500	571.152	80.010	19.991	100.255	20.280	-1.137
1028.000	571.405	80.011	19.994	100.257	20.282	-1.311
1028.500	571.643	80.005	19.989	100.260	20.281	-1.193
1029.000	571.885	80.008	19.989	100.259	20.282	-1.286
1029.501	572.148	80.006	19.990	100.267	20.282	-1.316
1030.001	572.383	80.009	19.992	100.266	20.282	-1.309
1030.500	572.646	79.999	19.989	100.263	20.282	-1.280
1031.001	572.878	80.019	19.990	100.260	20.281	-1.202
1031.501	573.145	79.995	19.983	100.261	20.280	-1.155
1032.000	573.381	79.998	19.991	100.257	20.281	-1.196
1032.500	573.630	80.011	19.993	100.260	20.281	-1.252
1033.000	573.891	80.007	19.989	100.261	20.281	-1.210
1033.500	574.108	80.011	19.988	100.262	20.281	-1.210
1034.000	574.398	80.012	19.983	100.260	20.281	-1.188
1034.500	574.609	80.003	19.988	100.257	20.281	-1.188
1035.000	574.875	80.011	19.992	100.252	20.281	-1.222
1035.500	575.117	80.001	19.989	100.252	20.280	-1.155
1036.000	575.362	80.005	19.987	100.253	20.280	-1.160
1036.500	575.611	80.004	19.990	100.254	20.282	-1.280
1037.001	575.837	80.011	19.993	100.262	20.281	-1.219
1037.501	576.120	80.012	19.986	100.267	20.282	-1.266
1038.000	576.332	80.015	19.990	100.263	20.282	-1.321
1038.501	576.600	80.007	19.993	100.259	20.283	-1.336
1039.001	576.848	80.011	19.989	100.261	20.281	-1.201
1039.500	577.079	80.010	19.989	100.259	20.282	-1.303
1040.000	577.341	80.011	19.991	100.255	20.281	-1.230
1040.500	577.579	80.007	19.991	100.258	20.282	-1.273
1041.000	577.855	80.012	19.993	100.260	20.282	-1.308
1041.500	578.082	80.005	19.989	100.259	20.281	-1.239
1042.000	578.315	80.007	19.990	100.260	20.279	-1.098
1042.500	578.573	80.011	19.991	100.262	20.280	-1.167
1043.000	578.805	80.002	19.988	100.262	20.280	-1.126
1043.500	579.074	80.012	19.994	100.261	20.279	-1.071
1044.000	579.295	80.006	19.989	100.263	20.279	-1.042
1044.500	579.570	80.011	19.993	100.265	20.278	-1.008
1045.000	579.798	80.003	19.991	100.265	20.278	-1.019
1045.500	580.046	80.008	19.991	100.268	20.279	-1.036
1046.000	580.310	80.002	19.990	100.271	20.279	-1.064
1046.500	580.557	80.009	19.991	100.266	20.277	-0.921
1047.000	580.818	80.009	19.989	100.262	20.276	-0.864
1047.500	581.032	80.014	19.992	100.254	20.279	-1.078
1048.000	581.311	80.010	19.992	100.253	20.277	-0.931
1048.500	581.536	80.007	19.992	100.249	20.277	-0.898
1049.000	581.775	80.010	19.992	100.248	20.276	-0.831
1049.500	582.031	80.013	19.987	100.251	20.276	-0.821
1050.000	582.279	80.008	19.993	100.252	20.276	-0.791
1050.500	582.536	80.009	19.989	100.251	20.276	-0.826
1051.000	582.767	80.007	19.991	100.253	20.276	-0.793
1051.500	583.041	80.006	19.993	100.257	20.275	-0.759
1052.000	583.280	80.011	19.992	100.260	20.276	-0.843
1052.500	583.549	80.012	19.991	100.267	20.274	-0.659
1053.000	583.773	80.013	19.991	100.266	20.273	-0.634
1053.500	584.014	80.003	19.989	100.265	20.273	-0.581
1054.001	584.266	80.017	19.996	100.263	20.276	-0.826
1054.501	584.502	80.010	19.990	100.262	20.275	-0.773
1055.000	584.791	80.002	19.991	100.261	20.276	-0.824
1055.500	585.004	80.014	19.990	100.263	20.273	-0.609
1056.001	585.265	80.007	19.991	100.262	20.275	-0.732
1056.501	585.500	80.004	19.990	100.264	20.275	-0.750
1057.000	585.746	80.005	19.988	100.260	20.276	-0.841
1057.500	586.007	80.017	19.993	100.258	20.274	-0.679
1058.000	586.237	80.012	19.993	100.257	20.275	-0.757
1058.500	586.509	80.010	19.990	100.261	20.274	-0.689
1059.000	586.723	80.014	19.991	100.260	20.276	-0.815
1059.500	586.985	80.008	19.991	100.262	20.276	-0.832
1060.000	587.228	80.009	19.989	100.264	20.276	-0.817
1060.500	587.467	80.011	19.993	100.260	20.276	-0.796
1061.000	587.722	80.009	19.992	100.260	20.274	-0.711
1061.500	587.949	80.003	19.991	100.262	20.276	-0.864
1062.000	588.219	80.008	19.988	100.263	20.276	-0.837
1062.500	588.444	80.017	19.990	100.261	20.277	-0.885
1063.000	588.690	80.008	19.990	100.262	20.279	-1.037
1063.500	588.952	80.006	19.992	100.260	20.277	-0.924
1064.000	589.185	80.010	19.991	100.259	20.278	-0.999
1064.500	589.457	80.013	19.987	100.258	20.277	-0.920
1065.000	589.666	80.009	19.982	100.256	20.279	-1.030
1065.500	589.951	80.011	19.992	100.251	20.277	-0.927
1066.000	590.179	80.017	19.993	100.251	20.278	-0.988
1066.501	590.449	80.017	19.994	100.251	20.278	-0.987
1067.001	590.679	79.997	19.993	100.254	20.277	-0.872
1067.500	590.923	80.006	19.990	100.259	20.277	-0.886
1068.001	591.188	80.009	19.993	100.264	20.277	-0.883
1068.501	591.415	80.001	19.989	100.267	20.277	-0.870
1069.000	591.683	80.009	19.989	100.266	20.277	-0.903
1069.500	591.905	80.013	19.991	100.262	20.278	-0.952
1070.000	592.183	80.015	19.992	100.259	20.277	-0.911
1070.500	592.405	80.014	19.992	100.263	20.278	-0.953
1071.000	592.664	80.007	19.991	100.259	20.278	-0.957
1071.500	592.923	80.012	19.994	100.261	20.278	-0.976
1072.000	593.130	80.007	19.986	100.262	20.276	-0.823
1072.501	593.397	80.016	19.987	100.261	20.277	-0.935
1073.001	593.640	80.008	19.989	100.257	20.276	-0.828
1073.501	593.893	80.010	19.990	100.260	20.277	-0.870
1074.001	594.131	80.008	19.990	100.258	20.276	-0.860
1074.500	594.370	80.011	19.989	100.257	20.277	-0.929
1075.000	594.635	80.009	19.990	100.257	20.278	-1.023
1075.500	594.863	80.008	19.987	100.258	20.277	-0.913
1076.000	595.136	80.008	19.987	100.255	20.278	-0.979
1076.500	595.366	80.018	19.992	100.254	20.279	-1.085
1077.000	595.629	80.008	19.991	100.256	20.279	-1.086
1077.500	595.864	80.011	19.990	100.259	20.279	-1.024
1078.000	596.095	80.010	19.990	100.260	20.278	-1.022
1078.500	596.363	80.008	19.986	100.263	20.280	-1.106
1079.000	596.581	80.006	19.990	100.263	20.281	-1.187
1079.500	596.856	80.005	19.988	100.262	20.281	-1.197
1080.000	597.085	80.010	19.991	100.260	20.280	-1.109
1080.500	597.335	80.009	19.993	100.262	20.280	-1.158
1081.000	597.582	80.010	19.989	100.266	20.280	-1.127
1081.500	597.830	80.005	19.991	100.266	20.281	-1.237
1082.001	598.090	80.010	19.995	100.268	20.282	-1.319
1082.501	598.308	80.007	19.990	100.271	20.282	-1.328
1083.000	598.599	80.007	19.988	100.269	20.280	-1.175
1083.500	598.820	80.007	19.988	100.265	20.281	-1.194
1084.000	599.074	80.007	19.991	100.265	20.281	-1.256
1084.500	599.317	80.008	19.989	100.265	20.282	-1.270
1085.000	599.543	80.009	19.989	100.264	20.281	-1.215
1085.500	599.804	80.015	19.992	100.261	20.283	-1.338
1086.000	600.040	80.008	19.987	100.266	20.279	-1.064
1086.500	600.310	80.009	19.987	100.264	20.280	-1.180
1087.000	600.539	80.010	19.991	100.259	20.280	-1.153
1087.500	600.812	80.003	19.989	100.259	20.278	-1.014
1088.000	601.040	80.014	19.989	100.260	20.280	-1.104
1088.500	601.293	80.003	19.989	100.252	20.279	-1.096
1089.000	601.556	80.012	19.989	100.256	20.279	-1.048
1089.500	601.781	80.010	19.990	100.256	20.279	-1.054
1090.000	602.069	80.018	19.995	100.256	20.280	-1.103
1090.500	602.286	80.015	19.994	100.258	20.278	-0.969
1091.000	602.550	80.016	19.987	100.265	20.278	-0.995
1091.500	602.778	80.008	19.994	100.260	20.279	-1.069
1092.000	603.033	80.011	19.988	100.264	20.278	-1.014
1092.500	603.282	80.015	19.993	100.261	20.278	-1.000
1093.000	603.507	80.006	19.991	100.262	20.277	-0.887
1093.500	603.811	80.010	19.990	100.261	20.278	-0.992
1094.000	604.027	80.014	19.988	100.265	20.278	-0.971
1094.500	604.297	80.015	19.987	100.263	20.279	-1.055
1095.000	604.518	79.999	19.995	100.261	20.280	-1.163
1095.500	604.766	80.005	19.987	100.262	20.278	-1.002
1096.000	605.015	80.007	19.989	100.259	20.280	-1.169
1096.500	605.267	80.003	19.992	100.258	20.278	-1.018
1097.000	605.536	80.005	19.987	100.260	20.280	-1.168
1097.501	605.762	80.013	19.987	100.261	20.279	-1.102
1098.001	606.018	80.004	19.987	100.257	20.280	-1.131
1098.500	606.273	80.015	19.992	100.258	20.279	-1.078
1099.000	606.515	80.013	19.990	100.261	20.281	-1.224
1099.500	606.771	80.007	19.990	100.259	20.278	-0.974
1100.000	606.989	80.007	19.989	100.259	20.279	-1.065
1100.500	607.272	80.012	19.991	100.260	20.279	-1.094
1101.000	607.502	79.999	19.984	100.256	20.280	-1.109
1101.500	607.765	80.007	19.988	100.248	20.281	-1.187
1102.000	608.007	80.006	19.989	100.245	20.279	-1.027
1102.500	608.239	80.011	19.988	100.242	20.280	-1.135
1103.000	608.504	80.012	19.989	100.236	20.279	-1.078
1103.500	608.746	80.007	19.989	100.235	20.279	-1.028
1104.000	609.016	80.012	19.990	100.239	20.278	-1.003
1104.500	609.235	80.014	19.989	100.237	20.279	-1.035
1105.000	609.505	80.015	19.994	100.240	20.278	-0.996
1105.500	609.749	80.010	19.990	100.249	20.280	-1.113
1106.000	609.997	80.005	19.986	100.253	20.278	-0.994
1106.501	610.241	80.010	19.994	100.252	20.278	-0.958
1107.001	610.475	80.014	19.990	100.261	20.278	-1.009
1107.500	610.744	80.002	19.989	100.265	20.278	-1.018
1108.000	610.982	80.014	19.993	100.264	20.278	-1.002
1108.500	611.234	80.007	19.985	100.272	20.279	-1.029
1109.001	611.476	80.012	19.991	100.273	20.278	-1.015
1109.501	611.727	80.003	19.991	100.269	20.280	-1.139
1110.001	611.980	80.013	19.986	100.268	20.281	-1.182
1110.500	612.217	80.015	19.986	100.266	20.278	-0.990
1111.000	612.490	80.010	19.992	100.256	20.280	-1.138
1111.500	612.723	80.010	19.987	100.264	20.280	-1.138
1112.000	612.988	80.011	19.986	100.265	20.280	-1.110
1112.500	613.212	80.009	19.989	100.263	20.281	-1.235
1113.000	613.471	80.000	19.990	100.264	20.282	-1.266
1113.500	613.729	80.010	19.989	100.269	20.281	-1.192
1114.001	613.953	80.008	19.991	100.263	20.280	-1.142
1114.501	614.229	80.011	19.991	100.264	20.281	-1.193
1115.001	614.444	80.010	19.987	100.269	20.280	-1.161
1115.500	614.716	80.010	19.991	100.267	20.281	-1.222
1116.001	614.960	80.008	19.989	100.267	20.282	-1.320
1116.501	615.194	80.009	19.990	100.269	20.282	-1.273
1117.000	615.445	80.012	19.988	100.269	20.280	-1.125
1117.500	615.681	80.004	19.990	100.266	20.281	-1.256
1118.000	615.947	80.007	19.993	100.270	20.281	-1.198
1118.500	616.180	80.008	19.989	100.270	20.283	-1.379
1119.000	616.441	80.010	19.991	100.272	20.282	-1.293
1119.501	616.670	80.009	19.988	100.271	20.281	-1.258
1120.001	616.940	80.007	19.990	100.272	20.284	-1.491
1120.501	617.198	80.007	19.990	100.270	20.282	-1.297
1121.000	617.423	80.002	19.988	100.269	20.282	-1.302
1121.500	617.676	80.006	19.992	100.267	20.283	-1.381
1122.000	617.915	80.009	19.990	100.268	20.283	-1.360
1122.500	618.182	80.005	19.991	100.270	20.284	-1.438
1123.000	618.430	80.013	19.991	100.271	20.284	-1.442
1123.500	618.670	80.011	19.990	100.271	20.284	-1.458
1124.000	618.929	80.007	19.987	100.272	20.284	-1.448
1124.500	619.163	80.010	19.989	100.267	20.284	-1.422
1125.000	619.431	80.012	19.990	100.266	20.284	-1.433
1125.500	619.660	80.009	19.991	100.265	20.282	-1.268
1126.001	619.928	80.010	19.987	100.265	20.283	-1.359
1126.501	620.160	80.004	19.987	100.264	20.283	-1.347
1127.001	620.403	80.009	19.985	100.265	20.283	-1.359
1127.501	620.663	80.007	19.987	100.263	20.283	-1.374
1128.001	620.883	80.003	19.988	100.261	20.281	-1.258
1128.500	621.178	80.007	19.992	100.260	20.281	-1.216
1129.000	621.381	80.009	19.986	100.266	20.283	-1.344
1129.500	621.644	80.007	19.986	100.266	20.283	-1.350
1130.000	621.895	80.008	19.992	100.266	20.283	-1.404
1130.500	622.132	80.005	19.988	100.269	20.283	-1.375
1131.000	622.406	80.008	19.991	100.267	20.281	-1.227
1131.501	622.617	80.015	19.990	100.264	20.281	-1.248
1132.001	622.905	80.014	19.992	100.266	20.282	-1.323
1132.500	623.124	80.009	19.990	100.269	20.282	-1.321
1133.000	623.372	80.010	19.994	100.268	20.283	-1.339
1133.500	623.630	80.001	19.988	100.272	20.281	-1.242
1134.000	623.873	80.006	19.988	100.269	20.282	-1.287
1134.500	624.121	80.016	19.991	100.264	20.283	-1.358
1135.000	624.340	80.008	19.990	100.264	20.282	-1.305
1135.500	624.627	80.013	19.988	100.265	20.282	-1.321
1136.000	624.851	80.013	19.991	100.262	20.283	-1.343
1136.500	625.118	80.016	19.992	100.259	20.281	-1.208
1137.000	625.371	80.004	19.990	100.262	20.281	-1.226
1137.500	625.620	80.009	19.992	100.260	20.282	-1.258
1138.000	625.862	80.003	19.988	100.262	20.281	-1.219
1138.500	626.088	80.008	19.990	100.260	20.282	-1.297
1139.000	626.370	80.013	19.990	100.264	20.281	-1.189
1139.501	626.588	80.004	19.991	100.265	20.280	-1.162
1140.001	626.861	80.012	19.994	100.265	20.280	-1.130
1140.501	627.094	80.005	19.989	100.262	20.279	-1.081
1141.000	627.348	80.011	19.989	100.264	20.281	-1.185
1141.500	627.608	80.009	19.988	100.262	20.281	-1.222
1142.000	627.827	80.007	19.990	100.262	20.280	-1.116
1142.500	628.094	80.003	19.992	100.264	20.279	-1.094
1143.000	628.327	80.010	19.990	100.268	20.281	-1.217
1143.500	628.604	80.013	19.993	100.270	20.280	-1.122
1144.000	628.847	80.013	19.991	100.274	20.281	-1.197
1144.500	629.075	80.012	19.991	100.276	20.281	-1.194
1145.000	629.342	80.007	19.990	100.275	20.280	-1.158
1145.500	629.570	80.007	19.990	100.270	20.281	-1.234
1146.000	629.863	80.013	19.990	100.270	20.282	-1.266
1146.500	630.080	80.010	19.990	100.266	20.282	-1.295
1147.001	630.339	80.010	19.990	100.267	20.281	-1.201
1147.501	630.593	80.007	19.991	100.268	20.282	-1.273
1148.000	630.822	80.010	19.991	100.268	20.282	-1.269
1148.500	631.082	80.008	19.988	100.268	20.282	-1.294
1149.001	631.301	80.008	19.991	100.269	20.281	-1.250
1149.501	631.582	80.004	19.986	100.270	20.281	-1.206
1150.000	631.795	80.012	19.988	100.266	20.281	-1.246
1150.500	632.062	80.008	19.991	100.259	20.282	-1.284
1151.001	632.316	80.010	19.991	100.261	20.282	-1.271
1151.501	632.563	80.014	19.994	100.260	20.280	-1.152
1152.001	632.845	80.009	19.987	100.262	20.281	-1.219
1152.501	633.048	80.008	19.990	100.263	20.282	-1.333
1153.000	633.325	80.009	19.993	100.268	20.282	-1.289
1153.500	633.550	80.008	19.992	100.269	20.282	-1.308
1154.000	633.812	80.010	19.988	100.270	20.283	-1.368
1154.500	634.061	80.010	19.988	100.265	20.281	-1.249
1155.000	634.316	80.014	19.989	100.267	20.282	-1.322
1155.500	634.551	80.017	19.990	100.267	20.283	-1.365
1156.000	634.777	80.009	19.988	100.264	20.281	-1.220
1156.500	635.043	80.010	19.986	100.263	20.282	-1.293
1157.000	635.272	80.011	19.991	100.258	20.282	-1.331
1157.501	635.540	80.012	19.990	100.259	20.284	-1.484
1158.001	635.783	80.012	19.990	100.255	20.283	-1.339
1158.501	636.024	80.012	19.990	100.258	20.282	-1.334
1159.001	636.284	80.011	19.988	100.258	20.282	-1.284
1159.500	636.523	80.008	19.984	100.264	20.282	-1.263
1160.000	636.786	80.014	19.989	100.259	20.282	-1.333
1160.500	637.026	80.017	19.989	100.259	20.285	-1.505
1161.000	637.268	80.016	19.986	100.257	20.284	-1.448
1161.500	637.514	80.012	19.991	100.254	20.284	-1.416
1162.000	637.762	80.011	19.990	100.258	20.283	-1.367
1162.500	638.020	80.009	19.984	100.262	20.284	-1.449
1163.000	638.233	80.007	19.984	100.263	20.285	-1.539
1163.500	638.527	80.011	19.990	100.262	20.285	-1.501
1164.001	638.754	80.009	19.988	100.265	20.284	-1.447
1164.501	639.019	80.014	19.991	100.261	20.284	-1.445
1165.000	639.249	80.012	19.989	100.262	20.283	-1.409
1165.500	639.504	80.010	19.990	100.265	20.284	-1.421
1166.000	639.768	80.009	19.989	100.267	20.285	-1.539
1166.500	639.994	80.011	19.989	100.266	20.284	-1.475
1167.000	640.254	80.004	19.988	100.265	20.284	-1.442
1167.500	640.477	80.010	19.992	100.261	20.284	-1.482
1168.000	640.747	80.013	19.993	100.261	20.284	-1.492
1168.500	640.985	80.012	19.989	100.261	20.282	-1.304
1169.000	641.229	80.004	19.988	100.260	20.283	-1.379
1169.500	641.493	80.009	19.991	100.260	20.283	-1.374
1170.001	641.730	80.006	19.989	100.264	20.283	-1.350
1170.501	641.991	80.007	19.987	100.264	20.283	-1.362
1171.001	642.220	80.011	19.990	100.261	20.282	-1.312
1171.500	642.464	80.013	19.987	100.262	20.282	-1.300
1172.000	642.730	80.010	19.990	100.260	20.282	-1.284
1172.500	642.969	80.014	19.992	100.256	20.283	-1.344
1173.000	643.222	80.011	19.988	100.257	20.283	-1.363
1173.500	643.459	80.014	19.990	100.261	20.282	-1.295
1174.001	643.708	80.007	19.986	100.260	20.281	-1.196
1174.501	643.955	80.013	19.991	100.261	20.283	-1.370
1175.000	644.215	80.007	19.989	100.263	20.283	-1.353
1175.500	644.467	80.013	19.992	100.260	20.283	-1.384
1176.000	644.711	80.004	19.988	100.260	20.283	-1.391
1176.500	644.961	80.001	19.989	100.260	20.283	-1.339
1177.000	645.194	80.009	19.991	100.262	20.283	-1.344
1177.500	645.471	80.013	19.990	100.262	20.282	-1.329
1178.000	645.704	80.011	19.991	100.262	20.282	-1.328
1178.501	645.973	80.004	19.990	100.262	20.283	-1.352
1179.001	646.192	80.008	19.997	100.263	20.283	-1.374
1179.500	646.437	80.002	19.986	100.267	20.283	-1.389
